File: TAInstCalorimetry/DATA/myexp8.csv
Time,Temperature [AmbientT(Therm3T)],Temperature [Temperature],Heat flow [Signal],Heat [Signal],Normalized heat flow [Signal],Normalized heat [Signal],Time markers
0.0,24.4859,20.0003,NaN,NaN,NaN,NaN,Reaction start
35.8566,24.4869,20.0001,0.000520502,0.00256754,0.000130125,0.000641885,NaN
172.107,24.4688,20.0003,0.0455237,3.20438,0.0113809,0.801094,NaN
373.357,24.4883,20.0001,0.0613788,14.6249,0.0153447,3.65622,NaN
670.357,24.5929,20.0003,0.0544612,32.3091,0.0136153,8.07729,NaN
1056.42,24.5496,19.9998,0.0321422,48.8996,0.00803554,12.2249,NaN
1491.17,24.5604,19.9998,0.0167369,59.1334,0.00418423,14.7833,NaN
2014.73,24.5531,19.9996,0.00844302,65.4009,0.00211076,16.3502,NaN
2679.61,24.5504,19.9995,0.004488,69.4706,0.001122,17.3676,NaN
3656.04,24.5507,19.9999,0.00263741,72.768,0.000659352,18.192,NaN
4714.32,24.5337,20.0001,0.00195275,75.1431,0.000488187,18.7858,NaN
5832.75,24.5907,20.0002,0.0016334,77.1261,0.00040835,19.2815,NaN
6965.12,24.5912,19.9998,0.00148895,78.8816,0.000372238,19.7204,NaN
8007.59,24.6225,19.9998,0.00144421,80.4055,0.000361053,20.1014,NaN
9163.01,24.6111,19.9998,0.00148389,82.0728,0.000370971,20.5182,NaN
10225.2,24.5421,19.9999,0.00172233,83.7737,0.000430582,20.9434,NaN
11316.8,24.6246,19.9996,0.00194212,85.776,0.000485531,21.444,NaN
12489.7,24.6201,19.9998,0.00217373,88.1882,0.000543434,22.0471,NaN
13651.7,24.6249,20,0.00242293,90.857,0.000605732,22.7143,NaN
14737.7,24.6435,20,0.00267519,93.6236,0.000668798,23.4059,NaN
15920.1,24.6532,19.9995,0.00296991,96.9594,0.000742477,24.2398,NaN
17174.3,24.607,19.9999,0.00329904,100.888,0.000824759,25.2221,NaN
18351.8,24.6584,19.9999,0.0036277,104.965,0.000906925,26.2412,NaN
19504.8,24.6924,19.9995,0.00396476,109.341,0.000991189,27.3351,NaN
20608.9,24.725,20,0.00430013,113.902,0.00107503,28.4756,NaN
21744.2,24.6421,19.9999,0.00465383,118.984,0.00116346,29.746,NaN
22989.4,24.6697,19.9999,0.00505174,125.026,0.00126294,31.2565,NaN
24421.5,24.7064,20.0001,0.00551186,132.59,0.00137797,33.1476,NaN
25563.7,24.6807,19.9995,0.00587594,139.094,0.00146899,34.7736,NaN
26810.3,24.7137,19.9999,0.00626461,146.663,0.00156615,36.6658,NaN
27952.7,24.7225,20.0001,0.00660756,154.017,0.00165189,38.5043,NaN
29137.3,24.7391,19.9998,0.00694343,162.045,0.00173586,40.5113,NaN
30337.7,24.7186,19.9997,0.00726386,170.576,0.00181597,42.6439,NaN
31548.6,24.6016,19.9998,0.00754982,179.548,0.00188745,44.8871,NaN
32835.7,24.5554,20.0001,0.00781729,189.442,0.00195432,47.3604,NaN
34042.7,24.5424,19.9999,0.00803383,199.011,0.00200846,49.7528,NaN
35272,24.5128,19.9998,0.008224,209.006,0.002056,52.2516,NaN
36335.1,24.4919,20.0003,0.00836021,217.825,0.00209005,54.4562,NaN
37571.3,24.472,20,0.00848515,228.24,0.00212129,57.0601,NaN
38918.6,24.4488,19.9996,0.00858466,239.744,0.00214616,59.936,NaN
40038,24.4424,20.0003,0.00863746,249.385,0.00215937,62.3463,NaN
41320.9,24.4479,20,0.00866763,260.489,0.00216691,65.1223,NaN
42517.8,24.4024,19.9998,0.00866876,270.866,0.00216719,67.7166,NaN
43705.5,24.3906,20,0.00864979,281.153,0.00216245,70.2882,NaN
45009.2,24.3388,20,0.00860953,292.405,0.00215238,73.1013,NaN
46211.1,24.3847,19.9994,0.00855857,302.723,0.00213964,75.6808,NaN
47401.6,24.3758,19.9995,0.00850308,312.879,0.00212577,78.2198,NaN
48453.5,24.3119,19.9998,0.00846169,321.801,0.00211542,80.4501,NaN
49568.3,24.3542,20.0003,0.0084603,331.226,0.00211507,82.8065,NaN
50738.1,24.3149,19.9999,0.00853143,341.16,0.00213286,85.29,NaN
51945,24.2901,20.0003,0.00859502,351.5,0.00214875,87.875,NaN
53137.5,24.2842,19.9991,0.0086127,361.764,0.00215317,90.4411,NaN
54334.8,24.284,20.0002,0.00858865,372.065,0.00214716,93.0163,NaN
55505.7,24.3297,19.9997,0.00853154,382.092,0.00213289,95.5229,NaN
56707.7,24.276,19.9999,0.0084438,392.296,0.00211095,98.074,NaN
57941.4,24.2447,19.9997,0.00833058,402.645,0.00208265,100.661,NaN
59097.6,24.2199,20.0001,0.00820923,412.208,0.00205231,103.052,NaN
60363.3,24.2416,19.9998,0.0080644,422.508,0.0020161,105.627,NaN
61502.8,24.2552,20.0002,0.00792626,431.62,0.00198156,107.905,NaN
62715.7,24.2451,19.9998,0.00777512,441.142,0.00194378,110.286,NaN
64011.8,24.2312,20.0002,0.00761257,451.114,0.00190314,112.779,NaN
65222.7,24.2466,20.0002,0.00746171,460.241,0.00186543,115.06,NaN
66455,24.2253,20,0.00730877,469.341,0.00182719,117.335,NaN
67561.7,24.2346,19.9999,0.0071769,477.357,0.00179422,119.339,NaN
68691.4,24.1805,20.0001,0.00704334,485.388,0.00176084,121.347,NaN
69906.9,24.166,19.9997,0.00690435,493.864,0.00172609,123.466,NaN
71279.8,24.1888,19.9996,0.00675363,503.239,0.00168841,125.81,NaN
72362.3,24.1856,19.9997,0.00663952,510.487,0.00165988,127.622,NaN
73458.8,24.1474,19.9995,0.00652751,517.706,0.00163188,129.427,NaN
74681.1,24.1809,19.9996,0.00640604,525.61,0.00160151,131.403,NaN
75764.5,24.1311,19.9997,0.00630136,532.494,0.00157534,133.123,NaN
76804,24.1915,19.9994,0.00620394,538.993,0.00155099,134.748,NaN
77928.9,24.1389,20.0002,0.00610254,545.914,0.00152564,136.479,NaN
79205.9,24.1023,20,0.0059891,553.634,0.00149728,138.409,NaN
80501.6,24.1133,19.9999,0.0058762,561.322,0.00146905,140.33,NaN
81627.7,24.1544,19.9995,0.00578083,567.885,0.00144521,141.971,NaN
82663.8,24.109,20.0001,0.00569471,573.829,0.00142368,143.457,NaN
83791.8,24.1105,20.0005,0.00560364,580.201,0.00140091,145.05,NaN
85002.8,24.1281,19.9994,0.00550789,586.93,0.00137697,146.732,NaN
86149.2,24.1693,19.9999,0.0054186,593.192,0.00135465,148.298,NaN
87315.2,24.1688,19.9998,0.00532968,599.458,0.00133242,149.865,NaN
88453.8,24.1566,19.9999,0.00524523,605.478,0.00131131,151.37,NaN
89592.7,24.1491,20,0.00516089,611.404,0.00129022,152.851,NaN
90643,24.1628,19.9999,0.00508753,616.786,0.00127188,154.196,NaN
91925.3,24.1677,20.0003,0.00500129,623.254,0.00125032,155.813,NaN
93101.5,24.1877,19.9998,0.00492597,629.092,0.00123149,157.273,NaN
94312.2,24.1825,19.9997,0.00485056,635.009,0.00121264,158.752,NaN
95530.2,24.1826,19.9999,0.00477769,640.872,0.00119442,160.218,NaN
96811.9,24.1769,19.9994,0.00470302,646.948,0.00117576,161.737,NaN
98107.7,24.192,19.9997,0.00462942,652.994,0.00115736,163.249,NaN
99535.6,24.2174,19.9997,0.00455157,659.549,0.00113789,164.887,NaN
101013,24.185,20.0001,0.00447581,666.216,0.00111895,166.554,NaN
102344,24.1919,19.9998,0.00440786,672.127,0.00110197,168.032,NaN
103651,24.1783,20.0003,0.00434018,677.844,0.00108505,169.461,NaN
105105,24.2033,19.9994,0.00427118,684.107,0.0010678,171.027,NaN
106333,24.3435,20.0007,0.00421665,689.317,0.00105416,172.329,NaN
107750,24.256,19.9999,0.00415636,695.249,0.00103909,173.812,NaN
109036,24.2415,20,0.004103,700.558,0.00102575,175.139,NaN
110352,24.2385,20.0001,0.00404692,705.921,0.00101173,176.48,NaN
111886,24.2604,19.9997,0.0039801,712.08,0.000995025,178.02,NaN
113261,24.3191,19.9997,0.00392006,717.511,0.000980016,179.378,NaN
114790,24.2617,19.9997,0.0038536,723.454,0.000963399,180.863,NaN
116134,24.2205,20.0003,0.00379453,728.593,0.000948632,182.148,NaN
117541,24.2135,20.0001,0.00373159,733.888,0.000932897,183.472,NaN
118904,24.1895,20,0.00366936,738.929,0.000917339,184.732,NaN
120185,24.1824,19.9998,0.00360944,743.593,0.000902361,185.898,NaN
121506,24.1764,20.0004,0.00354721,748.319,0.000886803,187.08,NaN
122766,24.1671,20.0001,0.00348512,752.75,0.000871281,188.187,NaN
124064,24.1515,19.9992,0.00342178,757.232,0.000855445,189.308,NaN
125310,24.1521,20.0001,0.00336078,761.459,0.000840196,190.365,NaN
126744,24.1555,19.9997,0.00329026,766.226,0.000822564,191.556,NaN
128195,24.1336,19.9998,0.00322116,770.952,0.000805289,192.738,NaN
129518,24.1465,19.9998,0.00316228,775.173,0.000790571,193.793,NaN
131039,24.1271,19.9997,0.00309826,779.933,0.000774564,194.983,NaN
132491,24.1313,19.9996,0.00304226,784.39,0.000760564,196.097,NaN
133907,24.126,19.9999,0.00299009,788.661,0.000747523,197.165,NaN
135232,24.0887,20.0002,0.00294531,792.594,0.000736328,198.149,NaN
136558,24.0812,19.9998,0.00290121,796.469,0.000725302,199.117,NaN
137747,24.0644,20.0001,0.00286526,799.898,0.000716314,199.974,NaN
139036,24.0957,19.9998,0.00282702,803.567,0.000706756,200.892,NaN
140261,24.0647,19.9996,0.00279235,807.009,0.000698086,201.752,NaN
141521,24.0342,20,0.00275654,810.504,0.000689134,202.626,NaN
142944,24.0637,19.9999,0.00271797,814.4,0.000679494,203.6,NaN
144233,24.0615,19.9989,0.00268358,817.88,0.000670895,204.47,NaN
145433,24.0331,20.0005,0.00265265,821.082,0.000663163,205.271,NaN
146779,24.0415,19.9999,0.00261718,824.629,0.000654295,206.157,NaN
148135,24.0535,19.9998,0.00258325,828.154,0.000645811,207.038,NaN
149630,23.9945,19.9998,0.00254665,831.988,0.000636662,207.997,NaN
151206,24.0239,19.9997,0.00250819,835.972,0.000627047,208.993,NaN
152464,23.9941,19.9998,0.00247848,839.109,0.00061962,209.777,NaN
153862,24.008,20.0002,0.00244844,842.551,0.000612111,210.638,NaN
155208,23.9693,20.0001,0.00241959,845.828,0.000604899,211.457,NaN
156629,23.9688,19.9995,0.00238938,849.244,0.000597345,212.311,NaN
157956,23.957,19.9996,0.00236326,852.398,0.000590815,213.1,NaN
159350,23.917,19.9998,0.00233598,855.673,0.000583995,213.918,NaN
160724,23.8968,19.9999,0.00231001,858.864,0.000577502,214.716,NaN
162037,23.907,20.0002,0.00228438,861.881,0.000571096,215.47,NaN
163402,23.8711,19.9998,0.00225925,864.98,0.000564812,216.245,NaN
164820,23.8737,20,0.0022347,868.169,0.000558675,217.042,NaN
166152,23.8495,19.9995,0.00221176,871.129,0.00055294,217.782,NaN
167532,23.8329,19.9994,0.00218936,874.167,0.00054734,218.542,NaN
168813,23.8423,20,0.00216822,876.957,0.000542054,219.239,NaN
169943,23.8425,20.0003,0.00215075,879.396,0.000537688,219.849,NaN
171124,23.8949,19.9997,0.00213161,881.926,0.000532903,220.482,NaN
172435,23.8798,19.9996,0.00211261,884.708,0.000528154,221.177,NaN
172695,23.8808,20,0.00210902,885.257,0.000527256,221.314,NaN
172932,23.8329,20.0002,NaN,NaN,NaN,NaN,NaN
173192,23.8778,20.0001,NaN,NaN,NaN,NaN,NaN
173451,23.9215,19.9995,NaN,NaN,NaN,NaN,NaN
173755,23.8758,19.9999,NaN,NaN,NaN,NaN,NaN
174022,23.9315,19.9995,NaN,NaN,NaN,NaN,NaN
174262,23.8857,19.9999,NaN,NaN,NaN,NaN,NaN
174625,23.8725,19.9995,NaN,NaN,NaN,NaN,NaN
174851,23.9233,20,NaN,NaN,NaN,NaN,NaN
175380,23.9117,19.9995,NaN,NaN,NaN,NaN,NaN
175764,23.868,20.0001,NaN,NaN,NaN,NaN,NaN
175978,23.8805,19.9999,NaN,NaN,NaN,NaN,NaN
176451,23.9336,19.9996,NaN,NaN,NaN,NaN,NaN
176786,23.9433,19.9995,NaN,NaN,NaN,NaN,NaN
177132,23.9328,19.9997,NaN,NaN,NaN,NaN,NaN
177423,23.9185,19.9995,NaN,NaN,NaN,NaN,NaN
177749,23.9398,20.0008,NaN,NaN,NaN,NaN,NaN
178030,23.9268,20.0002,NaN,NaN,NaN,NaN,NaN
178398,23.9626,19.9999,NaN,NaN,NaN,NaN,NaN
178694,23.947,19.9996,NaN,NaN,NaN,NaN,NaN
178999,23.9802,20,NaN,NaN,NaN,NaN,NaN
179273,23.9837,20.0002,NaN,NaN,NaN,NaN,NaN
179587,23.9475,20.0001,NaN,NaN,NaN,NaN,NaN
180133,23.9661,19.9993,NaN,NaN,NaN,NaN,NaN
180501,23.9762,19.9994,NaN,NaN,NaN,NaN,NaN
180783,23.9709,20,NaN,NaN,NaN,NaN,NaN
181058,23.9552,19.9997,NaN,NaN,NaN,NaN,NaN
181331,23.9834,19.9998,NaN,NaN,NaN,NaN,NaN
181593,23.9863,19.9997,NaN,NaN,NaN,NaN,NaN
181828,23.9835,19.9994,NaN,NaN,NaN,NaN,NaN
182092,24.0152,19.9999,NaN,NaN,NaN,NaN,NaN
182449,23.985,19.9997,NaN,NaN,NaN,NaN,NaN
182734,23.956,19.9998,NaN,NaN,NaN,NaN,NaN
183081,23.9801,19.9998,NaN,NaN,NaN,NaN,NaN
183382,23.9303,20,NaN,NaN,NaN,NaN,NaN
183813,23.9884,20.0004,NaN,NaN,NaN,NaN,NaN
184099,24.0061,20.0002,NaN,NaN,NaN,NaN,NaN
184381,23.9711,19.9997,NaN,NaN,NaN,NaN,NaN
184649,23.9796,20.0002,NaN,NaN,NaN,NaN,NaN
185008,23.991,19.9993,NaN,NaN,NaN,NaN,NaN
185246,24.0499,19.9996,NaN,NaN,NaN,NaN,NaN
185526,24.0338,20.0006,NaN,NaN,NaN,NaN,NaN
185936,24.1268,19.9998,NaN,NaN,NaN,NaN,NaN
186194,24.1635,19.9997,NaN,NaN,NaN,NaN,NaN
186435,24.1889,20.0003,NaN,NaN,NaN,NaN,NaN