File: TAInstCalorimetry/DATA/myexp3.csv
Time,Temperature [AmbientT(Therm3T)],Temperature [Temperature],Heat flow [Signal],Heat [Signal],Normalized heat flow [Signal],Normalized heat [Signal],Time markers
0.0,24.169,19.9997,NaN,NaN,NaN,NaN,Reaction start
32.0905,24.1369,19.9998,0.000909726,0.00311611,0.000227431,0.000779028,NaN
154.653,24.2303,20.0003,0.0939823,6.63128,0.0234956,1.65782,NaN
452.341,24.179,19.9999,0.0723739,32.7866,0.0180935,8.19664,NaN
916.403,24.1838,20.0004,0.0334386,57.5334,0.00835965,14.3834,NaN
1514.59,24.1724,19.9999,0.0118656,69.5613,0.0029664,17.3903,NaN
2435.84,24.1435,19.9999,0.00464342,76.2976,0.00116086,19.0744,NaN
3848.4,24.0672,19.9997,0.00243905,80.9001,0.000609763,20.225,NaN
5552.28,24.0958,20,0.00177126,84.3785,0.000442814,21.0946,NaN
7573.81,24.0975,20,0.00156257,87.6876,0.000390643,21.9219,NaN
9385.39,24.1254,19.9998,0.00170144,90.5483,0.00042536,22.6371,NaN
11115.2,24.12,19.9996,0.00207835,93.8324,0.000519588,23.4581,NaN
12974.6,24.1061,19.9998,0.00247537,98.0573,0.000618841,24.5143,NaN
14913.7,24.0975,20.0001,0.00295337,103.311,0.000738342,25.8277,NaN
16887,24.1258,19.9996,0.00350039,109.669,0.000875098,27.4172,NaN
18619.1,24.099,20.0002,0.00402216,116.18,0.00100554,29.0451,NaN
20548.7,24.0755,20.0001,0.0046387,124.53,0.00115968,31.1326,NaN
22927.8,24.0553,19.9999,0.00544258,136.517,0.00136064,34.1293,NaN
24864,24.005,19.9996,0.00610261,147.695,0.00152565,36.9238,NaN
26764.3,23.9973,19.9995,0.00673282,159.895,0.0016832,39.9738,NaN
28547.4,23.9759,19.9998,0.00729112,172.404,0.00182278,43.1011,NaN
30574.5,23.959,20.0001,0.00786091,187.775,0.00196523,46.9439,NaN
32349.7,23.9487,19.9999,0.0082854,202.118,0.00207135,50.5296,NaN
34225.1,23.9744,19.999,0.0086423,218.007,0.00216057,54.5017,NaN
36179.3,23.9456,19.9995,0.00891105,235.175,0.00222776,58.7938,NaN
38081.1,23.9527,19.9997,0.00906936,252.291,0.00226734,63.0727,NaN
39927.5,23.9438,19.9996,0.00913434,269.108,0.00228358,67.2769,NaN
41750.3,23.9614,19.9997,0.00912758,285.761,0.00228189,71.4403,NaN
43936.9,23.9516,20.0001,0.00904602,305.643,0.00226151,76.4108,NaN
45737.4,23.9471,19.9997,0.00894345,321.84,0.00223586,80.4599,NaN
47445.8,23.9723,20.0001,0.00890727,337.064,0.00222682,84.2661,NaN
49232.4,23.9303,20.0003,0.00905379,353.104,0.00226345,88.276,NaN
51302.4,23.9471,20,0.00909474,371.91,0.00227369,92.9776,NaN
53102,23.9599,19.9995,0.00904455,388.245,0.00226114,97.0612,NaN
55030.3,23.9454,19.9997,0.00890669,405.564,0.00222667,101.391,NaN
57087,23.9441,19.9998,0.00869407,423.673,0.00217352,105.918,NaN
59089.6,23.9167,20.0001,0.00844734,440.841,0.00211184,110.21,NaN
60875.3,23.9245,20,0.00821648,455.719,0.00205412,113.93,NaN
62815.8,23.91,19.9997,0.00797245,471.425,0.00199311,117.856,NaN
64861.8,23.9106,19.9998,0.00773293,487.488,0.00193323,121.872,NaN
66820,23.8819,20,0.00752282,502.423,0.0018807,125.606,NaN
68728.8,23.8946,20.0002,0.00733121,516.598,0.0018328,129.149,NaN
70603.3,23.9013,19.9998,0.00715298,530.172,0.00178825,132.543,NaN
72608.7,23.9147,19.9999,0.00696342,544.327,0.00174085,136.082,NaN
74450.1,23.8588,19.9998,0.00678554,556.985,0.00169638,139.246,NaN
76242.1,23.8819,19.9997,0.0066053,568.985,0.00165133,142.246,NaN
78211.9,23.8372,19.9999,0.00640154,581.796,0.00160038,145.449,NaN
80231,23.8442,19.9998,0.00618681,594.505,0.0015467,148.626,NaN
82129.7,23.8473,19.9999,0.00598116,606.057,0.00149529,151.514,NaN
84031.9,23.8663,20.0002,0.00577611,617.239,0.00144403,154.31,NaN
85895.5,23.8819,19.9998,0.00557935,627.82,0.00139484,156.955,NaN
87871.7,23.8996,20,0.00537828,638.645,0.00134457,159.661,NaN
89766.6,23.9023,19.9997,0.00519368,648.66,0.00129842,162.165,NaN
91976.3,23.9031,19.9997,0.00498803,659.908,0.00124701,164.977,NaN
93644,23.8933,19.9997,0.00484005,668.102,0.00121001,167.025,NaN
95605.9,23.8998,20,0.0046715,677.431,0.00116788,169.358,NaN
97382.2,23.9367,20.0001,0.00452362,685.597,0.0011309,171.399,NaN
99263.1,23.9069,20.0001,0.00437082,693.961,0.0010927,173.49,NaN
101297,23.9179,19.9997,0.00421377,702.691,0.00105344,175.673,NaN
103169,23.918,19.9995,0.00407531,710.447,0.00101883,177.612,NaN
104867,23.9106,19.9993,0.00395363,717.263,0.000988408,179.316,NaN
106725,23.9361,20,0.00382565,724.488,0.000956412,181.122,NaN
108686,23.9316,19.9997,0.00370098,731.867,0.000925244,182.967,NaN
110583,23.8979,20,0.00359127,738.781,0.000897817,184.695,NaN
112464,23.9355,19.9998,0.00348974,745.44,0.000872434,186.36,NaN
114234,23.9364,19.9997,0.00340454,751.541,0.000851135,187.885,NaN
116385,23.9254,19.9998,0.00330811,758.758,0.000827027,189.689,NaN
118539,23.9575,20,0.00322124,765.79,0.00080531,191.447,NaN
120312,23.9561,19.9999,0.00315914,771.443,0.000789785,192.861,NaN
122461,23.9635,20,0.00309329,778.161,0.000773322,194.54,NaN
124369,23.9664,19.9998,0.00304304,784.011,0.00076076,196.003,NaN
126158,23.9718,19.999,0.00300156,789.418,0.00075039,197.354,NaN
127958,23.9756,20,0.00296268,794.787,0.000740671,198.697,NaN
129905,23.9935,19.9998,0.00292194,800.515,0.000730485,200.129,NaN
131792,23.9677,19.9998,0.00288355,805.994,0.000720888,201.498,NaN
133887,24.0153,20,0.00284092,811.988,0.000710231,202.997,NaN
135882,24.0086,20.0003,0.00280202,817.619,0.000700506,204.405,NaN
137560,23.9903,19.9989,0.00277289,822.294,0.000693221,205.573,NaN
139550,24.0248,20.0001,0.00273599,827.776,0.000683998,206.944,NaN
141987,24.0312,19.9998,0.00269206,834.389,0.000673014,208.597,NaN
144588,23.9722,19.9998,0.00264515,841.331,0.000661288,210.333,NaN
146899,24.0103,19.9999,0.00260445,847.397,0.000651113,211.849,NaN
149036,24.0153,19.9999,0.0025667,852.921,0.000641676,213.23,NaN
150953,24.0104,19.9996,0.00253531,857.811,0.000633828,214.453,NaN
153362,23.9823,19.9998,0.00249511,863.869,0.000623778,215.967,NaN
155956,24.0007,20,0.00245681,870.292,0.000614203,217.573,NaN
158154,23.9812,20.0001,0.00242487,875.658,0.000606218,218.914,NaN
160617,24.0258,19.9998,0.00238846,881.585,0.000597115,220.396,NaN
162687,24.0009,19.9999,0.00235777,886.498,0.000589443,221.625,NaN
164939,24.0309,20,0.00232419,891.77,0.000581047,222.942,NaN
167190,24.0492,19.9997,0.00229062,896.965,0.000572655,224.241,NaN
169170,23.9842,19.9999,0.00225988,901.468,0.000564969,225.367,NaN
171370,24.0333,19.9996,0.00222312,906.399,0.00055578,226.6,NaN
173248,24.0121,19.9998,0.00219271,910.546,0.000548178,227.636,NaN
175709,24.0227,19.9998,0.00215344,915.894,0.000538361,228.974,NaN
178122,24.0728,19.9992,0.0021186,921.048,0.000529649,230.262,NaN
180417,24.0452,19.9998,0.00208443,925.871,0.000521107,231.468,NaN
182720,24.0454,19.9999,0.00204859,930.63,0.000512146,232.657,NaN
184978,24.0574,19.9998,0.00201252,935.215,0.000503129,233.804,NaN
187022,24.0573,20,0.00198127,939.296,0.000495318,234.824,NaN
189021,24.0306,20.0003,0.00194801,943.224,0.000487002,235.806,NaN
191131,24.0692,19.9997,0.00191218,947.298,0.000478046,236.824,NaN
193461,24.0814,19.9996,0.0018731,951.707,0.000468276,237.927,NaN
195843,24.0804,19.9996,0.00183832,956.127,0.000459579,239.032,NaN
197970,24.0831,19.9998,0.0018101,960.007,0.000452524,240.002,NaN
199932,24.0597,19.9999,0.00178218,963.53,0.000445545,240.883,NaN
202086,24.1034,19.9999,0.00174765,967.332,0.000436912,241.833,NaN
204111,24.1035,20.0004,0.00171537,970.839,0.000428842,242.71,NaN
206297,24.1199,19.9999,0.00168255,974.553,0.000420637,243.638,NaN
208495,24.1286,20,0.00165344,978.218,0.00041336,244.555,NaN
210685,24.0914,20,0.00162223,981.807,0.000405557,245.452,NaN
212731,24.0926,19.9999,0.00158636,985.09,0.000396589,246.272,NaN
214884,24.1166,19.9998,0.00154519,988.462,0.000386297,247.116,NaN
216967,24.0932,19.9999,0.0015062,991.639,0.000376549,247.91,NaN
219245,24.0908,20.0001,0.00146408,995.022,0.000366021,248.756,NaN
221151,24.1093,19.9997,0.00142944,997.78,0.000357359,249.445,NaN
223408,24.149,19.9997,0.00139735,1000.97,0.000349338,250.242,NaN
225320,24.1766,19.9994,0.00137565,1003.62,0.000343913,250.905,NaN
227324,24.1199,19.9998,0.0013532,1006.35,0.000338301,251.588,NaN
229679,24.1216,19.9998,0.00132297,1009.51,0.000330743,252.376,NaN
231829,24.1374,19.9996,0.00129136,1012.32,0.000322839,253.079,NaN
234151,24.1505,20,0.00125875,1015.28,0.000314687,253.819,NaN
236496,24.1275,19.9996,0.00122775,1018.19,0.000306938,254.548,NaN
238700,24.1342,19.9997,0.00119976,1020.87,0.00029994,255.217,NaN
240698,24.1497,19.9998,0.00117575,1023.24,0.000293938,255.81,NaN
242912,24.174,19.9991,0.00115025,1025.81,0.000287564,256.454,NaN
245255,24.1284,19.9999,0.00112365,1028.48,0.000280912,257.12,NaN
247512,24.1528,19.9999,0.00109815,1030.99,0.000274539,257.746,NaN
249837,24.1328,19.9996,0.00107123,1033.51,0.000267807,258.377,NaN
252138,24.1452,19.9999,0.00104488,1035.94,0.00026122,258.986,NaN
254333,24.1544,19.9996,0.00101819,1038.21,0.000254548,259.552,NaN
256488,24.145,19.9995,0.00099014,1040.37,0.000247535,260.093,NaN
258731,24.1677,19.9998,0.000962145,1042.56,0.000240536,260.64,NaN
259136,24.156,19.9997,0.000957422,1042.95,0.000239356,260.737,NaN
259475,24.156,19.9995,NaN,NaN,NaN,NaN,NaN
259872,24.1696,20.0001,NaN,NaN,NaN,NaN,NaN
260554,24.1511,19.9995,NaN,NaN,NaN,NaN,NaN