File: TAInstCalorimetry/DATA/myexp5.csv
Time,Temperature [AmbientT(Therm3T)],Temperature [Temperature],Heat flow [Signal],Heat [Signal],Normalized heat flow [Signal],Normalized heat [Signal],Time markers
0.0,24.518,20,NaN,NaN,NaN,NaN,Reaction start
31.5838,24.5261,20.0003,0.00116167,0.00346218,0.000290417,0.000865546,NaN
132.584,24.5431,20.0003,0.0773066,4.29338,0.0193266,1.07335,NaN
315.084,24.5917,20.0003,0.0820737,19.9675,0.0205184,4.99187,NaN
680.084,24.5348,20.0001,0.0522996,44.1629,0.0130749,11.0407,NaN
1040.8,24.5325,20,0.0242657,57.483,0.00606642,14.3707,NaN
1520.9,24.5271,19.9999,0.0101593,65.0581,0.00253982,16.2645,NaN
2288.41,24.5549,19.9998,0.00461814,70.1892,0.00115454,17.5473,NaN
3290.29,24.5531,19.9997,0.00285345,73.7596,0.000713362,18.4399,NaN
4365.58,24.6148,19.9996,0.00214128,76.3955,0.00053532,19.0989,NaN
5535.19,24.5686,20.0002,0.00176812,78.6568,0.000442031,19.6642,NaN
6704.78,24.5908,19.9994,0.00158726,80.6046,0.000396815,20.1512,NaN
7882.24,24.5834,19.9998,0.00151775,82.4254,0.000379437,20.6063,NaN
9130.8,24.618,19.9997,0.00158248,84.3245,0.000395621,21.0811,NaN
10249.3,24.6146,20,0.00181532,86.2256,0.000453831,21.5564,NaN
11469.6,24.6452,19.9988,0.00205403,88.5862,0.000513508,22.1465,NaN
12675.3,24.5967,19.9999,0.00230152,91.2101,0.000575381,22.8025,NaN
13846.7,24.6039,19.9996,0.00256233,94.0569,0.000640583,23.5142,NaN
15007.5,24.6258,20,0.0028431,97.1919,0.000710776,24.298,NaN
16019.5,24.6232,19.9993,0.00310431,100.2,0.000776078,25.05,NaN
17283.7,24.6424,19.9995,0.00345018,104.341,0.000862545,26.0853,NaN
18359.3,24.6565,20,0.00375961,108.217,0.000939902,27.0543,NaN
19541.1,24.654,20,0.00411378,112.868,0.00102844,28.217,NaN
20700.6,24.6778,20,0.00447432,117.846,0.00111858,29.4615,NaN
21944.1,24.6626,19.9997,0.00487156,123.656,0.00121789,30.914,NaN
23058.9,24.6954,19.9996,0.00523322,129.288,0.0013083,32.322,NaN
24231.6,24.699,20,0.00561596,135.65,0.00140399,33.9124,NaN
25559.8,24.7068,19.9997,0.00604592,143.396,0.00151148,35.8489,NaN
26711.8,24.7173,20,0.00641114,150.571,0.00160278,37.6427,NaN
27925.4,24.7335,20.0003,0.00678204,158.579,0.00169551,39.6447,NaN
29180.2,24.722,20,0.00714589,167.319,0.00178647,41.8298,NaN
30303.7,24.6412,20.0003,0.00745051,175.52,0.00186263,43.8801,NaN
31396.1,24.5913,19.9998,0.00772474,183.811,0.00193119,45.9528,NaN
32548.4,24.5597,19.9999,0.00798579,192.866,0.00199645,48.2165,NaN
33796.4,24.5372,20.0001,0.00823661,202.993,0.00205915,50.7481,NaN
35076.7,24.4754,19.9998,0.00845617,213.682,0.00211404,53.4206,NaN
36360.9,24.4959,19.9989,0.00863774,224.662,0.00215944,56.1656,NaN
37715.8,24.4668,19.9995,0.00878858,236.473,0.00219715,59.1182,NaN
38947.2,24.4631,19.9998,0.00889126,247.361,0.00222282,61.8402,NaN
40169.5,24.4154,19.9998,0.00896049,258.275,0.00224012,64.5686,NaN
41365.6,24.448,19.9997,0.00900121,269.02,0.0022503,67.2549,NaN
42567.7,24.4232,19.9997,0.00901652,279.852,0.00225413,69.9629,NaN
43750,24.38,19.9997,0.00901042,290.511,0.00225261,72.6276,NaN
44898.7,24.3261,19.9999,0.00898736,300.848,0.00224684,75.2121,NaN
46126.1,24.3594,19.9999,0.00895207,311.858,0.00223802,77.9645,NaN
47247,24.3489,20.0003,0.00892286,321.875,0.00223072,80.4688,NaN
48360.4,24.2759,19.9996,0.00892133,331.805,0.00223033,82.9513,NaN
49339.6,24.3009,19.9999,0.00896029,340.557,0.00224007,85.1393,NaN
50615,24.311,19.9998,0.00901409,352.024,0.00225352,88.0059,NaN
51862.4,24.3305,19.9995,0.00902831,363.28,0.00225708,90.82,NaN
53045.8,24.2684,19.9998,0.00902259,373.962,0.00225565,93.4905,NaN
54246.3,24.2831,20.0001,0.00899214,384.779,0.00224803,96.1947,NaN
55351.2,24.273,19.9997,0.00893942,394.687,0.00223485,98.6717,NaN
56620.3,24.2323,19.9999,0.00885264,405.98,0.00221316,101.495,NaN
57917.2,24.2927,19.9996,0.00873812,417.389,0.00218453,104.347,NaN
59175,24.2387,19.9997,0.00860763,428.3,0.00215191,107.075,NaN
60517.2,24.238,20.0001,0.00845576,439.752,0.00211394,109.938,NaN
61660.3,24.2379,20,0.00831581,449.339,0.00207895,112.335,NaN
62874.1,24.2467,19.9998,0.0081643,459.341,0.00204108,114.835,NaN
64048.2,24.2153,20.0001,0.00801783,468.841,0.00200446,117.21,NaN
65197.4,24.2351,19.9999,0.00787148,477.97,0.00196787,119.493,NaN
66402.1,24.1654,20.0004,0.00772127,487.362,0.00193032,121.841,NaN
67546.7,24.1864,19.9994,0.00758267,496.121,0.00189567,124.03,NaN
68747.6,24.1828,19.9997,0.00744185,505.142,0.00186046,126.285,NaN
70028.3,24.1796,19.9999,0.00729651,514.579,0.00182413,128.645,NaN
71247.6,24.1815,19.9992,0.00716383,523.395,0.00179096,130.849,NaN
72310.1,24.1998,19.9997,0.00705292,530.946,0.00176323,132.737,NaN
73570.6,24.1421,19.9996,0.00692608,539.756,0.00173152,134.939,NaN
74763.3,24.1669,20.0002,0.00681026,547.947,0.00170256,136.987,NaN
76014.1,24.1437,19.9996,0.00669337,556.391,0.00167334,139.098,NaN
77049.6,24.131,19.9993,0.00659916,563.273,0.00164979,140.818,NaN
78248.7,24.1259,19.9996,0.00649154,571.122,0.00162289,142.781,NaN
79443.3,24.1182,19.9996,0.00638771,578.815,0.00159693,144.704,NaN
80688.6,24.1279,19.9998,0.00628053,586.703,0.00157013,146.676,NaN
81787.9,24.128,20.0001,0.00618836,593.556,0.00154709,148.389,NaN
83050.6,24.0755,20.0002,0.00608393,601.304,0.00152098,150.326,NaN
84444.6,24.1225,20.0003,0.00597158,609.706,0.0014929,152.427,NaN
85713,24.1536,20.0001,0.00587095,617.216,0.00146774,154.304,NaN
86766.1,24.1362,20,0.00578986,623.356,0.00144746,155.839,NaN
87807.9,24.1486,20.0001,0.00571109,629.346,0.00142777,157.337,NaN
88908.8,24.1583,20,0.0056297,635.589,0.00140743,158.897,NaN
90100.5,24.1683,19.9993,0.00554404,642.246,0.00138601,160.562,NaN
91166.2,24.1951,20,0.00546948,648.115,0.00136737,162.029,NaN
92234.8,24.1726,19.9997,0.00539636,653.92,0.00134909,163.48,NaN
93448.2,24.1684,19.9999,0.0053159,660.419,0.00132898,165.105,NaN
94807.2,24.1858,20,0.00522779,667.583,0.00130695,166.896,NaN
95950.9,24.1962,19.9997,0.00515548,673.521,0.00128887,168.38,NaN
97196.8,24.1616,19.9998,0.0050793,679.896,0.00126983,169.974,NaN
98534.7,24.19,19.9996,0.00499996,686.638,0.00124999,171.659,NaN
99815.2,24.1801,19.9997,0.0049248,692.992,0.0012312,173.248,NaN
101131,24.1779,19.9996,0.00485025,699.422,0.00121256,174.856,NaN
102695,24.1511,19.9996,0.00476398,706.939,0.00119099,176.735,NaN
104132,24.2188,20.0002,0.0046859,713.729,0.00117147,178.432,NaN
105359,24.3258,19.9999,0.00461914,719.44,0.00115478,179.86,NaN
106581,24.267,19.9999,0.00455256,725.042,0.00113814,181.26,NaN
107852,24.2716,20.0001,0.00448296,730.786,0.00112074,182.696,NaN
109155,24.2514,19.9999,0.00440783,736.578,0.00110196,184.145,NaN
110478,24.247,19.9998,0.00433122,742.356,0.0010828,185.589,NaN
111924,24.2483,19.9998,0.00424634,748.561,0.00106159,187.14,NaN
113147,24.2599,19.9996,0.00417336,753.71,0.00104334,188.428,NaN
114449,24.2882,19.9997,0.00409542,759.092,0.00102385,189.773,NaN
115718,24.2403,20.0003,0.00401817,764.24,0.00100454,191.06,NaN
116893,24.211,19.9997,0.00394573,768.919,0.000986433,192.23,NaN
118230,24.2049,20.0001,0.00386105,774.137,0.000965262,193.534,NaN
119680,24.1966,19.9998,0.00376973,779.67,0.000942433,194.918,NaN
121310,24.166,20.0004,0.00366732,785.729,0.00091683,196.432,NaN
122427,24.1641,19.9998,0.00359899,789.787,0.000899749,197.447,NaN
123632,24.1441,19.9998,0.00352822,794.08,0.000882055,198.52,NaN
124960,24.1146,19.9998,0.00345338,798.718,0.000863345,199.68,NaN
126287,24.1461,19.9998,0.00338319,803.253,0.000845796,200.813,NaN
127688,24.1527,20.0003,0.00331397,807.945,0.000828493,201.986,NaN
129229,24.1329,20.0005,0.00324368,812.994,0.000810919,203.249,NaN
130641,24.1315,19.9999,0.00318278,817.532,0.000795694,204.383,NaN
131963,24.1156,20,0.00312841,821.704,0.000782103,205.426,NaN
133159,24.1174,19.9999,0.00308069,825.418,0.000770172,206.354,NaN
134392,24.099,19.9998,0.00303403,829.186,0.000758508,207.297,NaN
135886,24.083,19.9996,0.00297861,833.678,0.000744652,208.419,NaN
137185,24.0706,20.0002,0.00293243,837.517,0.000733107,209.379,NaN
138510,24.0952,20.0002,0.00288725,841.372,0.000721813,210.343,NaN
139791,24.0581,19.9995,0.00284443,845.041,0.000711108,211.26,NaN
141017,24.0678,19.9998,0.00280397,848.503,0.000700994,212.126,NaN
142330,24.052,19.9998,0.00276244,852.159,0.000690609,213.04,NaN
143509,24.0417,19.9998,0.00272681,855.394,0.000681702,213.849,NaN
144719,24.0404,19.9993,0.00269159,858.673,0.000672898,214.668,NaN
146110,24.0419,19.9996,0.00265261,862.388,0.000663152,215.597,NaN
147306,24.0235,19.9997,0.00261984,865.541,0.00065496,216.385,NaN
148748,24.0112,19.9998,0.00258244,869.293,0.000645611,217.323,NaN
150187,23.9937,19.9998,0.00254718,872.984,0.000636795,218.246,NaN
151489,23.9671,19.9998,0.00251618,876.28,0.000629046,219.07,NaN
152723,23.9995,19.9995,0.00248716,879.366,0.000621789,219.842,NaN
154060,23.936,19.9994,0.00245754,882.673,0.000614384,220.668,NaN
155458,23.9593,19.9999,0.00242713,886.086,0.000606782,221.521,NaN
156794,23.9388,20,0.00240062,889.311,0.000600154,222.328,NaN
158235,23.9425,19.9995,0.00237198,892.749,0.000592994,223.187,NaN
159472,23.8783,19.9997,0.00234839,895.67,0.000587097,223.917,NaN
160643,23.9119,19.9995,0.00232789,898.407,0.000581973,224.602,NaN
161907,23.8965,19.9994,0.00230569,901.335,0.000576423,225.334,NaN
163254,23.8969,20.0008,0.00228299,904.425,0.000570746,226.106,NaN
164596,23.8937,19.9997,0.00226101,907.474,0.000565254,226.869,NaN
166071,23.8701,19.9999,0.00223815,910.794,0.000559537,227.698,NaN
167567,23.8546,19.9995,0.00221517,914.124,0.000553791,228.531,NaN
168606,23.831,19.9993,0.00220038,916.419,0.000550095,229.105,NaN
169822,23.8453,19.9993,0.00218287,919.084,0.000545719,229.771,NaN
171076,23.8512,19.9998,0.00216703,921.811,0.000541757,230.453,NaN
172433,23.8535,19.9998,0.00214949,924.74,0.000537372,231.185,NaN
172657,23.8731,20.0001,0.00214713,925.221,0.000536782,231.305,NaN
172915,23.8817,20,NaN,NaN,NaN,NaN,NaN
173254,23.8844,20.0001,NaN,NaN,NaN,NaN,NaN
173505,23.9157,20.0001,NaN,NaN,NaN,NaN,NaN
173841,23.9044,19.9996,NaN,NaN,NaN,NaN,NaN
174136,23.8824,19.9995,NaN,NaN,NaN,NaN,NaN
174439,23.9083,19.9995,NaN,NaN,NaN,NaN,NaN
174905,23.9143,19.9995,NaN,NaN,NaN,NaN,NaN
175294,23.8721,20.0001,NaN,NaN,NaN,NaN,NaN
175584,23.8758,19.9999,NaN,NaN,NaN,NaN,NaN
176069,23.9328,19.9999,NaN,NaN,NaN,NaN,NaN
176336,23.9241,19.9998,NaN,NaN,NaN,NaN,NaN
176808,23.9188,19.9998,NaN,NaN,NaN,NaN,NaN
177173,23.9244,20.0004,NaN,NaN,NaN,NaN,NaN
177524,23.944,20.0003,NaN,NaN,NaN,NaN,NaN
177856,23.9742,19.9998,NaN,NaN,NaN,NaN,NaN
178211,23.9558,19.9997,NaN,NaN,NaN,NaN,NaN
178557,23.959,19.9997,NaN,NaN,NaN,NaN,NaN
178813,23.972,19.9999,NaN,NaN,NaN,NaN,NaN
179157,23.9644,19.9999,NaN,NaN,NaN,NaN,NaN
179545,23.9666,20.0001,NaN,NaN,NaN,NaN,NaN
179866,23.929,20.0001,NaN,NaN,NaN,NaN,NaN
180181,23.9619,19.9995,NaN,NaN,NaN,NaN,NaN
180427,23.9488,19.9997,NaN,NaN,NaN,NaN,NaN
180720,23.9604,19.9999,NaN,NaN,NaN,NaN,NaN
180935,23.9702,19.9998,NaN,NaN,NaN,NaN,NaN
181268,23.9603,19.9995,NaN,NaN,NaN,NaN,NaN
181539,23.978,19.9997,NaN,NaN,NaN,NaN,NaN
181834,24.0021,19.9996,NaN,NaN,NaN,NaN,NaN
182136,24.0086,19.9998,NaN,NaN,NaN,NaN,NaN
182527,23.9976,19.9998,NaN,NaN,NaN,NaN,NaN
182859,24.0144,19.9998,NaN,NaN,NaN,NaN,NaN
183106,23.9821,19.9998,NaN,NaN,NaN,NaN,NaN
183553,24.0039,19.9998,NaN,NaN,NaN,NaN,NaN
183851,24.0328,20,NaN,NaN,NaN,NaN,NaN
184113,23.9864,19.9997,NaN,NaN,NaN,NaN,NaN
184483,23.9783,19.9995,NaN,NaN,NaN,NaN,NaN
184719,24.0064,19.9997,NaN,NaN,NaN,NaN,NaN
185063,24.0445,20.0006,NaN,NaN,NaN,NaN,NaN
185472,24.1426,19.9999,NaN,NaN,NaN,NaN,NaN
185727,24.1598,19.9997,NaN,NaN,NaN,NaN,NaN
185953,24.1632,19.9999,NaN,NaN,NaN,NaN,NaN