File: TAInstCalorimetry/DATA/myexp1.csv
Time,Temperature [AmbientT(Therm3T)],Temperature [Temperature],Heat flow [Signal],Heat [Signal],Normalized heat flow [Signal],Normalized heat [Signal],Time markers
0.0,25.2783,20,NaN,NaN,NaN,NaN,Reaction start
33.7452,25.2783,19.9999,0.00443777,0.0173748,0.000554722,0.00217185,NaN
180.151,25.3162,20.0002,0.137461,13.2427,0.0171827,1.65534,NaN
574.433,25.3445,20.0002,0.120126,66.1042,0.0150158,8.26302,NaN
1019.78,25.3462,20.0001,0.0570477,104.63,0.00713097,13.0788,NaN
1592.5,25.2827,19.9996,0.0228857,125.66,0.00286071,15.7075,NaN
2456.74,25.2809,19.9994,0.00901273,137.995,0.00112659,17.2494,NaN
3723.92,25.2442,19.9995,0.00466422,145.948,0.000583027,18.2435,NaN
5505.93,25.2294,19.9999,0.00334786,152.806,0.000418483,19.1007,NaN
7522.53,25.2591,20,0.00306501,159.166,0.000383126,19.8957,NaN
9354.07,25.2243,19.9999,0.00340387,164.903,0.000425484,20.6129,NaN
11242.7,25.2441,19.9999,0.00427632,172.182,0.000534539,21.5227,NaN
13104,25.2587,20.0003,0.00513733,180.926,0.000642167,22.6157,NaN
14935.6,25.1955,19.9997,0.00610135,191.2,0.000762668,23.9,NaN
16741.4,25.1968,20.0001,0.00715877,203.157,0.000894846,25.3946,NaN
18602.8,25.216,19.9998,0.0083512,217.577,0.0010439,27.1971,NaN
20559.5,25.1932,20,0.00969644,235.222,0.00121206,29.4027,NaN
22438,25.1573,19.9999,0.0110486,254.699,0.00138108,31.8374,NaN
24420.1,25.1711,19.9993,0.0124968,278.033,0.00156209,34.7542,NaN
26208.9,25.1179,19.9994,0.0137739,301.538,0.00172174,37.6923,NaN
28043.3,25.1265,20,0.0150054,327.95,0.00187567,40.9938,NaN
30037.5,25.096,19.9999,0.0162024,359.097,0.0020253,44.8871,NaN
31955.2,25.1101,19.9999,0.0171626,391.121,0.00214533,48.8901,NaN
33821.5,25.0525,19.9999,0.0179018,423.872,0.00223773,52.984,NaN
35618.7,25.0572,19.9995,0.0184287,456.545,0.00230358,57.0681,NaN
37551.5,25.0751,19.9997,0.0188079,492.559,0.00235099,61.5699,NaN
39545.3,25.081,19.9997,0.0190124,530.29,0.00237655,66.2862,NaN
41317.7,25.0857,19.9996,0.0190506,564.041,0.00238132,70.5051,NaN
43105.5,25.0868,19.9996,0.0189683,598.043,0.00237104,74.7553,NaN
45179.4,25.1041,20.0002,0.0187556,637.179,0.00234445,79.6474,NaN
47238.9,25.0632,19.9995,0.0184715,675.517,0.00230894,84.4396,NaN
49186.1,25.0756,19.9997,0.0183184,711.281,0.0022898,88.9101,NaN
51338.1,25.0329,20.0001,0.0185623,750.964,0.00232029,93.8705,NaN
53092.5,25.0164,20,0.0186057,783.589,0.00232572,97.9486,NaN
55104.4,24.9935,19.9997,0.0184759,820.923,0.00230949,102.615,NaN
56994,25.0154,20,0.0182037,855.599,0.00227546,106.95,NaN
58789.9,25.0361,19.9999,0.0178387,887.975,0.00222984,110.997,NaN
60807.7,24.9458,19.9997,0.0173505,923.488,0.00216881,115.436,NaN
62617.8,24.9529,19.9997,0.0168786,954.47,0.00210983,119.309,NaN
64477.4,24.9966,19.9998,0.0163896,985.401,0.00204871,123.175,NaN
66327.2,24.9415,19.9998,0.0159161,1015.28,0.00198952,126.91,NaN
68270.3,24.9409,19.9999,0.0154424,1045.74,0.00193029,130.718,NaN
70099.6,24.9229,20,0.0150236,1073.6,0.00187795,134.2,NaN
72012,24.9302,19.9998,0.0146166,1101.94,0.00182708,137.742,NaN
74033.7,24.8735,19.9996,0.0142156,1131.08,0.00177695,141.385,NaN
76091.7,24.8762,19.9999,0.0138369,1159.94,0.00172961,144.993,NaN
77814,24.8543,20.0002,0.0135318,1183.51,0.00169148,147.938,NaN
79760.4,24.8148,19.9995,0.0131991,1209.52,0.00164989,151.19,NaN
81867.1,24.8694,20,0.0128479,1236.96,0.00160599,154.62,NaN
83675.5,24.8463,19.9996,0.0125568,1259.92,0.00156961,157.491,NaN
85727,24.8111,20,0.012241,1285.36,0.00153012,160.67,NaN
87496.6,24.8177,20.0001,0.0119807,1306.79,0.00149759,163.348,NaN
89390.3,24.8803,19.9997,0.011715,1329.22,0.00146438,166.153,NaN
91165.1,24.8442,19.9996,0.0114755,1349.8,0.00143444,168.725,NaN
93158.5,24.8985,20.0003,0.0112155,1372.41,0.00140194,171.552,NaN
95137.6,24.8969,20.0004,0.0109623,1394.36,0.00137028,174.295,NaN
96880.6,24.8924,19.9994,0.0107397,1413.27,0.00134246,176.659,NaN
98857.5,24.8586,19.9994,0.0104868,1434.25,0.00131085,179.282,NaN
101065,24.8633,19.9999,0.0102002,1457.09,0.00127502,182.136,NaN
103211,24.8502,19.9995,0.0099186,1478.68,0.00123982,184.835,NaN
105170,24.8121,19.9998,0.00965532,1497.85,0.00120692,187.232,NaN
107123,24.8496,20.0002,0.00938578,1516.44,0.00117322,189.555,NaN
108990,24.8346,20,0.00912771,1533.73,0.00114096,191.716,NaN
111007,24.8272,19.9999,0.00884013,1551.85,0.00110502,193.981,NaN
112987,24.8072,19.9999,0.00855114,1569.07,0.00106889,196.134,NaN
114600,24.8075,19.9994,0.00831511,1582.68,0.00103939,197.834,NaN
116465,24.7554,19.9998,0.00804434,1597.93,0.00100554,199.741,NaN
118288,24.8452,19.9998,0.00778846,1612.36,0.000973557,201.545,NaN
120261,24.7771,19.9996,0.00753148,1627.46,0.000941435,203.433,NaN
122423,24.8323,19.9998,0.00727767,1643.47,0.000909708,205.433,NaN
124329,24.7699,19.9998,0.00707716,1657.14,0.000884646,207.143,NaN
126104,24.7792,19.9997,0.00691017,1669.55,0.000863771,208.694,NaN
128135,24.7782,19.9998,0.0067342,1683.41,0.000841775,210.426,NaN
129964,24.8171,20.0001,0.00658654,1695.59,0.000823318,211.949,NaN
131960,24.748,19.9999,0.00643617,1708.58,0.000804522,213.573,NaN
134172,24.7498,20,0.00628009,1722.64,0.000785011,215.331,NaN
135925,24.7886,19.9996,0.00616271,1733.55,0.000770339,216.694,NaN
138071,24.7815,19.9999,0.00602271,1746.63,0.000752839,218.328,NaN
140050,24.7713,19.9996,0.00590098,1758.42,0.000737622,219.803,NaN
142106,24.7878,19.9997,0.00578048,1770.43,0.00072256,221.304,NaN
144514,24.7592,20.0001,0.0056438,1784.19,0.000705475,223.023,NaN
146768,24.7842,20.0001,0.00552592,1796.77,0.000690739,224.597,NaN
148872,24.762,19.9997,0.00542024,1808.29,0.00067753,226.036,NaN
151213,24.7204,19.9996,0.00530334,1820.84,0.000662917,227.604,NaN
153355,24.7216,19.9999,0.00520352,1832.09,0.00065044,229.011,NaN
155495,24.6894,19.9999,0.00511214,1843.12,0.000639017,230.39,NaN
157752,24.6612,19.9996,0.00502083,1854.56,0.000627604,231.82,NaN
159855,24.6311,20.0004,0.00493929,1865.03,0.000617411,233.129,NaN
162069,24.662,19.9996,0.00485804,1875.88,0.000607255,234.484,NaN
164260,24.6405,19.9997,0.00478132,1886.44,0.000597665,235.805,NaN
166412,24.6152,19.9996,0.00470838,1896.65,0.000588548,237.081,NaN
168615,24.6187,19.9995,0.00463757,1906.94,0.000579696,238.367,NaN
171028,24.6437,19.9993,0.00456466,1918.04,0.000570583,239.755,NaN
173400,24.6175,19.9998,0.0044992,1928.79,0.0005624,241.099,NaN
175524,24.6148,19.9997,0.00444432,1938.29,0.00055554,242.286,NaN
177330,24.5827,20.0008,0.00440273,1946.27,0.000550341,243.284,NaN
179624,24.5826,20.0004,0.00435513,1956.32,0.000544391,244.54,NaN
182006,24.62,19.9996,0.00430548,1966.64,0.000538185,245.829,NaN
183885,24.5571,19.9999,0.00426656,1974.69,0.00053332,246.836,NaN
186143,24.6143,19.9994,0.004222,1984.27,0.00052775,248.033,NaN
188171,24.6177,19.9999,0.00418322,1992.79,0.000522903,249.099,NaN
190170,24.5627,19.9997,0.00414447,2001.12,0.000518059,250.14,NaN
192635,24.6055,19.9999,0.00409694,2011.28,0.000512117,251.409,NaN
194604,24.6013,19.9998,0.00405845,2019.3,0.000507306,252.413,NaN
196646,24.6315,19.9998,0.00401735,2027.55,0.000502169,253.444,NaN
198986,24.6063,19.9996,0.0039743,2036.9,0.000496788,254.612,NaN
201099,24.5748,19.9999,0.00393765,2045.26,0.000492206,255.657,NaN
203460,24.5791,20.0001,0.00389873,2054.51,0.000487342,256.813,NaN
205708,24.5712,19.9996,0.00386439,2063.23,0.000483049,257.904,NaN
207829,24.5458,19.9995,0.003832,2071.4,0.000479,258.924,NaN
209869,24.5231,20.0002,0.00380132,2079.18,0.000475166,259.897,NaN
211853,24.5407,19.9999,0.00377338,2086.69,0.000471673,260.837,NaN
214163,24.5452,19.9995,0.00373921,2095.37,0.000467401,261.921,NaN
216329,24.5317,20.0001,0.00370716,2103.44,0.000463395,262.929,NaN
218873,24.5095,19.9999,0.00366877,2112.82,0.000458596,264.102,NaN
220983,24.5195,19.9994,0.00363824,2120.52,0.00045478,265.066,NaN
223256,24.4911,19.9995,0.00360586,2128.76,0.000450732,266.095,NaN
225848,24.4927,20,0.00356771,2138.06,0.000445964,267.257,NaN
228033,24.4432,19.9995,0.00353795,2145.82,0.000442244,268.227,NaN
230349,24.4775,19.9999,0.00350657,2153.98,0.000438321,269.247,NaN
232172,24.4698,19.9997,0.00348242,2160.35,0.000435302,270.043,NaN
234619,24.4908,19.9999,0.00345045,2168.83,0.000431306,271.103,NaN
237030,24.4719,19.9998,0.00341819,2177.11,0.000427274,272.138,NaN
239087,24.4801,19.9991,0.00339169,2184.11,0.000423962,273.014,NaN
241421,24.4391,19.9997,0.00336073,2191.99,0.000420092,273.999,NaN
243809,24.4519,19.9997,0.00332968,2199.98,0.00041621,274.997,NaN
246277,24.4132,19.9998,0.00329639,2208.16,0.000412049,276.02,NaN
248554,24.4184,19.9997,0.00326674,2215.63,0.000408343,276.954,NaN
250635,24.3948,19.9999,0.0032394,2222.4,0.000404925,277.8,NaN
252906,24.4407,19.9999,0.0032098,2229.72,0.000401225,278.715,NaN
255120,24.4954,19.9997,0.00318213,2236.8,0.000397767,279.6,NaN
257413,24.4634,19.9997,0.00315154,2244.06,0.000393943,280.507,NaN
259041,24.4662,20,0.00313013,2249.17,0.000391266,281.146,NaN
259304,24.4749,19.9999,NaN,NaN,NaN,NaN,NaN
259899,24.4602,19.9996,NaN,NaN,NaN,NaN,NaN
260470,24.4148,19.9997,NaN,NaN,NaN,NaN,NaN
260826,24.4915,19.9997,NaN,NaN,NaN,NaN,NaN