File: TAInstCalorimetry/DATA/myexp6.csv
Time,Temperature [AmbientT(Therm3T)],Temperature [Temperature],Heat flow [Signal],Heat [Signal],Normalized heat flow [Signal],Normalized heat [Signal],Time markers
0.0,24.442,20,NaN,NaN,NaN,NaN,Reaction start
30.5052,24.4481,20.0001,0.00109081,0.00497222,0.000272702,0.00124305,NaN
127.505,24.479,20.0002,0.0819969,4.31601,0.0204992,1.079,NaN
267.005,24.5122,20.0002,0.0903111,17.097,0.0225778,4.27426,NaN
539.005,24.622,20.0003,0.064328,37.8133,0.016082,9.45332,NaN
841.005,24.5553,19.9999,0.0363262,53.1376,0.00908156,13.2844,NaN
1167.63,24.5318,19.9999,0.0175564,61.487,0.00438911,15.3717,NaN
1650.95,24.5326,19.9997,0.00801878,67.1927,0.00200469,16.7982,NaN
2397.23,24.5471,20,0.00419641,71.4228,0.0010491,17.8557,NaN
3399.85,24.5725,19.9998,0.00273822,74.7699,0.000684555,18.6925,NaN
4491.95,24.5163,20,0.002099,77.3682,0.000524751,19.3421,NaN
5755.24,24.562,19.9998,0.00175025,79.7713,0.000437561,19.9428,NaN
6940.11,24.6095,19.9996,0.00160679,81.7461,0.000401697,20.4365,NaN
8109.13,24.5923,20,0.00156881,83.5958,0.000392204,20.8989,NaN
9256.08,24.6222,19.9997,0.00174204,85.4629,0.00043551,21.3657,NaN
10423.4,24.622,19.9999,0.00199121,87.6487,0.000497801,21.9122,NaN
11574.1,24.6084,19.9995,0.00221203,90.066,0.000553007,22.5165,NaN
12670.5,24.6314,19.9999,0.00244244,92.6153,0.00061061,23.1538,NaN
13860.1,24.6317,19.9998,0.0027205,95.6837,0.000680124,23.9209,NaN
15102,24.6306,19.9999,0.00303965,99.2575,0.000759912,24.8144,NaN
16250.3,24.6287,19.9994,0.00335861,102.929,0.000839652,25.7324,NaN
17471.7,24.6435,19.9997,0.00371542,107.247,0.000928855,26.8118,NaN
18685,24.6584,19.9996,0.00408732,111.979,0.00102183,27.9949,NaN
19757.8,24.6442,20.0002,0.00442959,116.547,0.0011074,29.1367,NaN
20837,24.6675,19.9994,0.00478512,121.518,0.00119628,30.3794,NaN
22062,24.6754,19.9996,0.00519809,127.633,0.00129952,31.9082,NaN
23331.1,24.6958,19.9997,0.00563241,134.505,0.0014081,33.6262,NaN
24657.2,24.6942,19.9995,0.00608486,142.274,0.00152122,35.5686,NaN
25893.1,24.7285,19.9993,0.00650006,150.052,0.00162501,37.513,NaN
27086.9,24.7083,19.9998,0.00688846,158.045,0.00172212,39.5112,NaN
28272.2,24.7549,19.9998,0.00725776,166.431,0.00181444,41.6077,NaN
29596.8,24.7275,20.001,0.00764202,176.302,0.0019105,44.0755,NaN
30730.4,24.6449,19.9992,0.00794738,185.141,0.00198685,46.2852,NaN
31974.1,24.5833,19.9996,0.00824742,195.215,0.00206185,48.8038,NaN
33194.2,24.5465,20.0002,0.00850585,205.44,0.00212646,51.3599,NaN
34439.7,24.5389,19.9998,0.00872978,216.178,0.00218244,54.0445,NaN
35635.1,24.5206,19.9992,0.00890779,226.723,0.00222695,56.6808,NaN
36912.1,24.4933,19.9999,0.00905991,238.199,0.00226498,59.5498,NaN
38206.3,24.5102,19.9999,0.0091753,250.003,0.00229383,62.5006,NaN
39450.6,24.434,20.0001,0.00925161,261.471,0.0023129,65.3677,NaN
40674.2,24.4374,19.9994,0.00929447,272.82,0.00232362,68.205,NaN
41971.2,24.4007,19.9996,0.0093095,284.888,0.00232738,71.2219,NaN
43125.8,24.3936,19.9998,0.00929755,295.632,0.00232439,73.908,NaN
44357.5,24.3569,19.9997,0.00926377,307.064,0.00231594,76.7661,NaN
45656,24.336,19.9994,0.00921639,319.063,0.0023041,79.7658,NaN
46825.1,24.3316,20,0.00917127,329.811,0.00229282,82.4528,NaN
47955.9,24.3206,20,0.00914647,340.164,0.00228662,85.0411,NaN
49041.3,24.3301,19.9998,0.00917287,350.101,0.00229322,87.5253,NaN
50256,24.3234,19.9992,0.00923824,361.283,0.00230956,90.3208,NaN
51467.8,24.2951,19.9996,0.00927645,372.506,0.00231911,93.1264,NaN
52574.5,24.2916,20.0001,0.00927517,382.775,0.00231879,95.6936,NaN
53701.6,24.2911,19.9997,0.00924318,393.213,0.0023108,98.3032,NaN
54854.3,24.3046,19.9995,0.00918178,403.834,0.00229544,100.959,NaN
56110.1,24.2758,19.9994,0.00908929,415.309,0.00227232,103.827,NaN
57390.5,24.2556,19.9998,0.00897029,426.873,0.00224257,106.718,NaN
58667.3,24.2326,20,0.00883454,438.242,0.00220864,109.56,NaN
59933.8,24.1894,19.9996,0.00868325,449.335,0.00217081,112.334,NaN
61087.3,24.2294,19.9998,0.00854093,459.27,0.00213523,114.817,NaN
62185.1,24.2791,20.0001,0.00840189,468.571,0.00210047,117.143,NaN
63530.2,24.2389,19.9997,0.00822705,479.754,0.00205676,119.939,NaN
64712.7,24.2284,19.9998,0.00807709,489.395,0.00201927,122.349,NaN
65917.1,24.1876,19.9996,0.00792735,499.032,0.00198184,124.758,NaN
66962.9,24.2099,19.9994,0.00779698,507.255,0.00194924,126.814,NaN
67978.9,24.2292,19.9995,0.00767806,515.116,0.00191952,128.779,NaN
69217.7,24.1944,19.9997,0.00753849,524.542,0.00188462,131.135,NaN
70447.5,24.1779,19.9999,0.007399,533.727,0.00184975,133.432,NaN
71628.6,24.1507,19.9997,0.00727071,542.389,0.00181768,135.597,NaN
72909.3,24.1639,19.9997,0.00713813,551.615,0.00178453,137.904,NaN
74157.1,24.1201,20,0.00701413,560.445,0.00175353,140.111,NaN
75301.5,24.1521,20.0001,0.00690238,568.408,0.0017256,142.102,NaN
76518.3,24.1426,19.9996,0.00678788,576.738,0.00169697,144.184,NaN
77913.9,24.1169,19.9993,0.0066593,586.12,0.00166483,146.53,NaN
79105.8,24.1289,20.0002,0.00655046,593.992,0.00163762,148.498,NaN
80423.3,24.1066,19.9998,0.00643147,602.544,0.00160787,150.636,NaN
81416.1,24.1543,19.9995,0.0063436,608.885,0.0015859,152.221,NaN
82643.4,24.0976,19.9998,0.00623817,616.606,0.00155954,154.152,NaN
83931.9,24.1137,19.9995,0.00613143,624.574,0.00153286,156.143,NaN
85147.6,24.1296,19.9997,0.00603461,631.969,0.00150865,157.992,NaN
86315.9,24.1429,20,0.00594092,638.964,0.00148523,159.741,NaN
87471.7,24.1302,20,0.00585131,645.779,0.00146283,161.445,NaN
88772.3,24.1817,19.9999,0.00575322,653.325,0.00143831,163.331,NaN
89863.1,24.1423,19.9998,0.00567388,659.556,0.00141847,164.889,NaN
90985.9,24.1521,19.9998,0.00559366,665.882,0.00139842,166.47,NaN
92192.3,24.1809,19.9997,0.00550796,672.579,0.00137699,168.145,NaN
93291.4,24.1671,19.9999,0.0054317,678.591,0.00135792,169.648,NaN
94527.4,24.1717,19.9997,0.00534897,685.253,0.00133724,171.313,NaN
95830,24.2146,19.9994,0.00526568,692.166,0.00131642,173.041,NaN
96904.5,24.2279,20,0.00520036,697.789,0.00130009,174.447,NaN
98125,24.1985,20.0002,0.0051275,704.091,0.00128187,176.023,NaN
99367.2,24.1977,19.9995,0.0050526,710.413,0.00126315,177.603,NaN
100766,24.1703,19.9998,0.00497507,717.427,0.00124377,179.357,NaN
101926,24.177,19.9998,0.00491497,723.161,0.00122874,180.79,NaN
103310,24.1845,20.0007,0.00483698,729.911,0.00120925,182.478,NaN
104559,24.2224,19.9998,0.00476371,735.906,0.00119093,183.977,NaN
105728,24.3367,19.9999,0.00469437,741.435,0.00117359,185.359,NaN
107129,24.2494,20.0001,0.00461142,747.955,0.00115285,186.989,NaN
108508,24.2415,19.9997,0.00452371,754.251,0.00113093,188.563,NaN
109740,24.2672,19.9997,0.00444905,759.779,0.00111226,189.945,NaN
111208,24.2046,19.9999,0.00436134,766.247,0.00109034,191.562,NaN
112575,24.2696,20.0001,0.00427733,772.151,0.00106933,193.038,NaN
113886,24.2693,19.9995,0.00419801,777.706,0.0010495,194.427,NaN
115163,24.2557,19.9999,0.00412006,783.018,0.00103001,195.755,NaN
116512,24.2382,20.0001,0.00403233,788.518,0.00100808,197.13,NaN
117997,24.1923,19.9997,0.00393388,794.431,0.000983469,198.608,NaN
119208,24.195,19.9998,0.00385751,799.148,0.000964376,199.787,NaN
120557,24.1829,19.9995,0.00377468,804.297,0.000943671,201.074,NaN
121890,24.1494,19.9998,0.00369852,809.276,0.00092463,202.319,NaN
123224,24.164,19.9998,0.00362477,814.161,0.000906192,203.54,NaN
124602,24.1468,19.9996,0.00355222,819.107,0.000888055,204.777,NaN
125889,24.1214,19.9997,0.00349056,823.638,0.00087264,205.909,NaN
127094,24.1536,20,0.00343489,827.809,0.000858721,206.952,NaN
128398,24.1338,20.0001,0.00337421,832.249,0.000843553,208.062,NaN
129983,24.1346,19.9995,0.00330405,837.541,0.000826011,209.385,NaN
131268,24.1646,19.9995,0.0032524,841.754,0.000813099,210.439,NaN
132496,24.1047,20,0.00320665,845.719,0.000801662,211.43,NaN
133799,24.1133,19.9996,0.0031578,849.865,0.000789451,212.466,NaN
135167,24.1024,19.9997,0.00311088,854.154,0.000777721,213.538,NaN
136559,24.0664,19.9995,0.00306421,858.451,0.000766053,214.613,NaN
138130,24.0573,19.9995,0.00301611,863.225,0.000754028,215.806,NaN
139427,24.0562,19.9997,0.00297857,867.114,0.000744642,216.779,NaN
140672,24.066,20,0.00294512,870.803,0.000736279,217.701,NaN
142072,24.0808,19.9999,0.00290491,874.896,0.000726226,218.724,NaN
143427,24.0549,19.9997,0.00286834,878.808,0.000717085,219.702,NaN
144671,24.0078,20.0004,0.00283811,882.355,0.000709527,220.589,NaN
145935,24.0222,19.9996,0.00280706,885.924,0.000701766,221.481,NaN
147167,23.987,20,0.0027768,889.365,0.0006942,222.341,NaN
148485,24.0075,19.9997,0.00274644,893.004,0.00068661,223.251,NaN
149831,24.0296,20.0003,0.00272081,896.683,0.000680203,224.171,NaN
151210,23.9875,20.0003,0.0026939,900.415,0.000673476,225.104,NaN
152434,23.9808,19.9999,0.00266641,903.698,0.000666603,225.925,NaN
153823,23.9638,19.9999,0.00263704,907.381,0.000659261,226.845,NaN
155126,23.9601,19.9997,0.00261268,910.801,0.00065317,227.7,NaN
156562,23.9575,19.9999,0.00258669,914.534,0.000646672,228.633,NaN
157854,23.918,19.9998,0.0025618,917.858,0.00064045,229.464,NaN
159177,23.9121,19.9997,0.0025377,921.231,0.000634425,230.308,NaN
160440,23.8909,20.0001,0.00251584,924.423,0.000628961,231.106,NaN
161780,23.8529,19.9999,0.00249716,927.781,0.000624289,231.945,NaN
163073,23.8783,20.0001,0.00247729,930.996,0.000619322,232.749,NaN
164450,23.851,19.9995,0.00245929,934.396,0.000614822,233.599,NaN
165695,23.8672,19.9995,0.0024429,937.447,0.000610726,234.362,NaN
167082,23.8535,19.9999,0.00242686,940.822,0.000606714,235.206,NaN
168364,23.7971,19.9999,0.00240945,943.924,0.000602362,235.981,NaN
169656,23.8211,19.9997,0.00239904,947.03,0.000599761,236.757,NaN
170808,23.8371,19.9997,0.00238793,949.787,0.000596983,237.447,NaN
172040,23.8813,19.9998,0.00237565,952.721,0.000593913,238.18,NaN
172591,23.8644,20,0.00237037,954.028,0.000592592,238.507,NaN
172821,23.8724,20,NaN,NaN,NaN,NaN,NaN
173147,23.8965,19.9999,NaN,NaN,NaN,NaN,NaN
173397,23.9105,19.9995,NaN,NaN,NaN,NaN,NaN
173723,23.8915,19.9994,NaN,NaN,NaN,NaN,NaN
174051,23.8942,19.9999,NaN,NaN,NaN,NaN,NaN
174391,23.8847,19.9995,NaN,NaN,NaN,NaN,NaN
174621,23.9279,19.9999,NaN,NaN,NaN,NaN,NaN
175078,23.9093,19.9994,NaN,NaN,NaN,NaN,NaN
175534,23.9122,20,NaN,NaN,NaN,NaN,NaN
175925,23.9241,19.9998,NaN,NaN,NaN,NaN,NaN
176360,23.9042,20.0002,NaN,NaN,NaN,NaN,NaN
176639,23.9276,20,NaN,NaN,NaN,NaN,NaN
177016,23.9425,19.9999,NaN,NaN,NaN,NaN,NaN
177287,23.9288,19.9998,NaN,NaN,NaN,NaN,NaN
177571,23.9427,20.0005,NaN,NaN,NaN,NaN,NaN
177896,23.9557,19.9998,NaN,NaN,NaN,NaN,NaN
178266,23.951,19.9999,NaN,NaN,NaN,NaN,NaN
178610,23.9428,19.9991,NaN,NaN,NaN,NaN,NaN
178913,23.9639,19.9993,NaN,NaN,NaN,NaN,NaN
179410,23.9511,19.9998,NaN,NaN,NaN,NaN,NaN
179900,23.9487,19.9994,NaN,NaN,NaN,NaN,NaN
180130,23.9838,20,NaN,NaN,NaN,NaN,NaN
180494,23.9735,19.9999,NaN,NaN,NaN,NaN,NaN
180758,23.9756,20.0002,NaN,NaN,NaN,NaN,NaN
180988,23.9585,19.9993,NaN,NaN,NaN,NaN,NaN
181268,23.9773,20,NaN,NaN,NaN,NaN,NaN
181633,23.9876,19.9994,NaN,NaN,NaN,NaN,NaN
181893,23.9537,19.9998,NaN,NaN,NaN,NaN,NaN
182275,24.0146,19.9997,NaN,NaN,NaN,NaN,NaN
182727,23.9968,20.0001,NaN,NaN,NaN,NaN,NaN
183007,24.0288,19.9997,NaN,NaN,NaN,NaN,NaN
183254,23.9997,20,NaN,NaN,NaN,NaN,NaN
183653,24.017,19.9997,NaN,NaN,NaN,NaN,NaN
183902,24.0149,19.9998,NaN,NaN,NaN,NaN,NaN
184175,24.0296,20,NaN,NaN,NaN,NaN,NaN
184495,23.9926,19.9998,NaN,NaN,NaN,NaN,NaN
184754,24.0131,19.9996,NaN,NaN,NaN,NaN,NaN
185044,24.0466,19.9998,NaN,NaN,NaN,NaN,NaN
185382,24.1075,20.0002,NaN,NaN,NaN,NaN,NaN
185728,24.1636,19.9999,NaN,NaN,NaN,NaN,NaN
186020,24.168,20.0001,NaN,NaN,NaN,NaN,NaN
186308,24.2285,20.0002,NaN,NaN,NaN,NaN,NaN