File: TAInstCalorimetry/DATA/myexp2.csv
Time,Temperature [AmbientT(Therm3T)],Temperature [Temperature],Heat flow [Signal],Heat [Signal],Normalized heat flow [Signal],Normalized heat [Signal],Time markers
0.0,24.4036,20,NaN,NaN,NaN,NaN,Reaction start
35.6429,24.4754,19.9999,0.000428303,0.00202309,0.000107076,0.000505774,NaN
177.643,24.5084,20.0007,0.0461761,3.413,0.011544,0.853249,NaN
383.364,24.4695,20.0001,0.0608372,15.0559,0.0152093,3.76396,NaN
673.643,24.5547,20.0001,0.0539592,32.1992,0.0134898,8.0498,NaN
1075.39,24.5051,20,0.0308451,49.0629,0.00771127,12.2657,NaN
1464.64,24.5322,20,0.0170778,58.1066,0.00426945,14.5266,NaN
2023.79,24.5262,19.9996,0.00813853,64.7566,0.00203463,16.1891,NaN
2788.08,24.5638,19.9997,0.00399031,69.0793,0.000997578,17.2698,NaN
3727.58,24.5599,19.9999,0.00243803,71.961,0.000609508,17.9903,NaN
4794.64,24.5574,20.0001,0.00181671,74.1816,0.000454177,18.5454,NaN
6001.69,24.5928,19.9998,0.00152074,76.1708,0.000380186,19.0427,NaN
7401.14,24.5903,20.0002,0.00139534,78.192,0.000348835,19.548,NaN
8579.75,24.5636,19.9998,0.00137274,79.82,0.000343184,19.955,NaN
9641.02,24.5924,19.9998,0.00155928,81.3536,0.00038982,20.3384,NaN
10786.9,24.6068,19.9999,0.00182054,83.2949,0.000455136,20.8237,NaN
11871.2,24.6286,19.9996,0.00204189,85.389,0.000510472,21.3472,NaN
13009.9,24.6165,19.9998,0.00228639,87.8513,0.000571598,21.9628,NaN
14194.5,24.6245,20.0001,0.00256251,90.721,0.000640626,22.6803,NaN
15255.7,24.6512,19.9999,0.00282957,93.5805,0.000707393,23.3951,NaN
16274.6,24.6573,19.9995,0.00310351,96.6019,0.000775877,24.1505,NaN
17574.9,24.6596,19.9994,0.00347421,100.876,0.000868552,25.219,NaN
18658.9,24.619,19.9998,0.00379971,104.818,0.000949927,26.2044,NaN
19884.5,24.6122,20.0006,0.00418425,109.709,0.00104606,27.4272,NaN
20955.4,24.6661,20.0003,0.00453219,114.375,0.00113305,28.5938,NaN
22204.4,24.6803,19.9992,0.00494952,120.295,0.00123738,30.0739,NaN
23463.8,24.7003,19.9999,0.00537772,126.798,0.00134443,31.6995,NaN
24752.1,24.6173,19.9999,0.00581497,134.009,0.00145374,33.5023,NaN
25957.7,24.6566,19.9999,0.00621594,141.262,0.00155398,35.3155,NaN
27152.9,24.7527,19.9998,0.00660123,148.923,0.00165031,37.2308,NaN
28311.6,24.7493,19.9998,0.0069568,156.78,0.0017392,39.195,NaN
29637.8,24.7352,19.9999,0.0073354,166.261,0.00183385,41.5651,NaN
30771,24.6609,19.9998,0.00763029,174.743,0.00190757,43.6858,NaN
32060.9,24.6062,19.9992,0.00792518,184.781,0.0019813,46.1952,NaN
33353.5,24.5598,19.9999,0.00817818,195.193,0.00204454,48.7983,NaN
34454.6,24.5276,19.9999,0.00835859,204.3,0.00208965,51.075,NaN
35525.3,24.5273,20,0.00850537,213.331,0.00212634,53.3327,NaN
36802.4,24.5002,19.9994,0.00864506,224.286,0.00216127,56.0715,NaN
37946.8,24.474,19.9998,0.00873772,234.235,0.00218443,58.5588,NaN
39249.8,24.4873,20,0.00880841,245.671,0.0022021,61.4176,NaN
40599.2,24.447,19.9998,0.00884289,257.584,0.00221072,64.396,NaN
41917.3,24.4496,19.9997,0.00884365,269.244,0.00221091,67.311,NaN
43114.1,24.3691,19.9994,0.00882006,279.815,0.00220501,69.9539,NaN
44442.4,24.3773,20,0.00877139,291.501,0.00219285,72.8752,NaN
45662.8,24.3881,19.9997,0.0087105,302.17,0.00217763,75.5424,NaN
46947,24.355,19.9997,0.00863679,313.31,0.0021592,78.3274,NaN
47999.8,24.3398,19.9996,0.00857911,322.371,0.00214478,80.5926,NaN
49059.1,24.3008,20,0.00854961,331.439,0.0021374,82.8596,NaN
50164.3,24.3339,19.9999,0.00860312,340.908,0.00215078,85.2271,NaN
51297.8,24.3149,20,0.00868334,350.709,0.00217083,87.6774,NaN
52369.4,24.2966,20,0.00871253,360.034,0.00217813,90.0085,NaN
53421,24.2608,19.9998,0.00870842,369.196,0.0021771,92.2991,NaN
54735.8,24.2884,19.9996,0.0086607,380.62,0.00216518,95.155,NaN
55890.2,24.2387,19.9996,0.0085851,390.577,0.00214627,97.6443,NaN
57148.7,24.2889,20,0.00847599,401.316,0.002119,100.329,NaN
58386.3,24.2437,19.9994,0.00834671,411.727,0.00208668,102.932,NaN
59495,24.2393,19.9998,0.00821809,420.911,0.00205452,105.228,NaN
60779.4,24.2417,19.9997,0.00805969,431.365,0.00201492,107.841,NaN
61905.4,24.2496,20.0001,0.00791459,440.359,0.00197865,110.09,NaN
63105.3,24.2619,19.9998,0.0077576,449.762,0.0019394,112.441,NaN
64228.5,24.2572,19.9999,0.00761146,458.392,0.00190286,114.598,NaN
65367.5,24.238,20.0003,0.0074638,466.978,0.00186595,116.745,NaN
66611.8,24.2625,20.0001,0.00730596,476.167,0.00182649,119.042,NaN
67691.1,24.1902,19.9997,0.00717244,483.98,0.00179311,120.995,NaN
68800.2,24.208,19.9997,0.00703892,491.86,0.00175973,122.965,NaN
70085.1,24.175,19.9997,0.00688972,500.808,0.00172243,125.202,NaN
71315.6,24.1695,19.9997,0.00675196,509.201,0.00168799,127.3,NaN
72549,24.127,19.9997,0.00661921,517.446,0.0016548,129.361,NaN
73716.8,24.1573,20.0001,0.00649887,525.105,0.00162472,131.276,NaN
74833.6,24.1435,19.9998,0.00638703,532.299,0.00159676,133.075,NaN
76105.2,24.1139,19.9995,0.00626359,540.343,0.0015659,135.086,NaN
77342.7,24.1098,20.0001,0.00614726,548.021,0.00153681,137.005,NaN
78723.1,24.0941,19.999,0.00602138,556.42,0.00150535,139.105,NaN
80195.6,24.1036,19.9994,0.00588997,565.189,0.00147249,141.297,NaN
81321.4,24.1251,19.9999,0.00579145,571.765,0.00144786,142.941,NaN
82591.7,24.1008,19.9996,0.00568296,579.053,0.00142074,144.763,NaN
83752.1,24.1527,19.9998,0.00558583,585.591,0.00139646,146.398,NaN
84928.5,24.1627,19.9997,0.00548998,592.106,0.0013725,148.026,NaN
85988.1,24.1091,19.9997,0.0054054,597.878,0.00135135,149.469,NaN
87211.9,24.1455,20.0001,0.00531067,604.435,0.00132767,151.109,NaN
88341.9,24.141,19.9997,0.00522596,610.387,0.00130649,152.597,NaN
89478.1,24.1653,19.9998,0.0051429,616.278,0.00128572,154.069,NaN
90798.4,24.1831,19.9998,0.00505004,623.006,0.00126251,155.751,NaN
91885.7,24.1399,19.9996,0.00497587,628.456,0.00124397,157.114,NaN
92962.9,24.1807,20.0001,0.00490401,633.777,0.001226,158.444,NaN
94086.6,24.2237,19.9997,0.00483171,639.247,0.00120793,159.812,NaN
95475.3,24.1793,19.9998,0.0047448,645.896,0.0011862,161.474,NaN
96618.7,24.163,19.9998,0.00467589,651.281,0.00116897,162.82,NaN
97898.7,24.1875,19.9997,0.00460156,657.219,0.00115039,164.305,NaN
99257.7,24.1944,20.0001,0.00452568,663.421,0.00113142,165.855,NaN
100492,24.1842,19.9994,0.00445918,668.964,0.00111479,167.241,NaN
101777,24.2077,19.9995,0.00439357,674.653,0.00109839,168.663,NaN
103220,24.1745,20,0.00432233,680.942,0.00108058,170.235,NaN
104628,24.1915,20.0002,0.00425452,686.981,0.00106363,171.745,NaN
105918,24.3246,20,0.00419427,692.43,0.00104857,173.107,NaN
107139,24.2962,19.9999,0.00414034,697.515,0.00103508,174.379,NaN
108391,24.2622,20,0.00408405,702.664,0.00102101,175.666,NaN
109820,24.2928,20,0.00401969,708.457,0.00100492,177.114,NaN
111325,24.2574,20.0001,0.00395087,714.452,0.000987718,178.613,NaN
112895,24.2414,20.0001,0.00387944,720.6,0.00096986,180.15,NaN
114204,24.2487,19.9994,0.00382085,725.64,0.000955213,181.41,NaN
115658,24.251,19.9998,0.00375441,731.146,0.000938602,182.787,NaN
116953,24.2217,20.0001,0.00369377,735.97,0.000923443,183.993,NaN
118392,24.2108,19.9998,0.0036246,741.236,0.000906151,185.309,NaN
119685,24.2082,19.9998,0.00356289,745.882,0.000890721,186.47,NaN
121198,24.1511,19.9997,0.00348999,751.219,0.000872497,187.805,NaN
122405,24.1676,19.9995,0.00343131,755.393,0.000857827,188.848,NaN
123993,24.1534,19.9998,0.0033547,760.782,0.000838674,190.196,NaN
125279,24.1342,19.9999,0.00329263,765.058,0.000823158,191.264,NaN
126725,24.1235,20.0001,0.00322441,769.769,0.000806102,192.442,NaN
127952,24.128,19.9983,0.00316744,773.69,0.00079186,193.422,NaN
129405,24.1203,19.9999,0.00310267,778.244,0.000775667,194.561,NaN
130928,24.1616,19.9998,0.00303741,782.919,0.000759353,195.73,NaN
132200,24.1146,19.9996,0.00298679,786.752,0.000746698,196.688,NaN
133406,24.1069,19.9999,0.00294114,790.325,0.000735285,197.581,NaN
134949,24.0982,19.9999,0.00288538,794.819,0.000721345,198.705,NaN
136214,24.1287,19.9999,0.00284228,798.442,0.00071057,199.61,NaN
137384,24.0801,19.9998,0.00280445,801.746,0.000701112,200.437,NaN
138744,24.0701,20,0.00276293,805.533,0.000690732,201.383,NaN
140309,24.076,19.9995,0.0027175,809.821,0.000679376,202.455,NaN
141571,24.0494,19.9998,0.00268179,813.227,0.000670447,203.307,NaN
142771,24.0298,19.9999,0.0026489,816.424,0.000662225,204.106,NaN
144209,24.0528,19.9996,0.00261108,820.208,0.000652771,205.052,NaN
145529,24.0432,20.0004,0.00257703,823.63,0.000644259,205.908,NaN
146686,24.0311,19.9998,0.0025473,826.594,0.000636824,206.649,NaN
147779,24.0193,20.0003,0.00251941,829.363,0.000629853,207.341,NaN
149071,24.0093,19.9997,0.00248826,832.598,0.000622066,208.15,NaN
150465,24.0036,19.9997,0.00245574,836.045,0.000613936,209.011,NaN
151970,23.9919,19.9997,0.00242135,839.713,0.000605337,209.928,NaN
153213,23.9774,20.0002,0.00239342,842.705,0.000598355,210.676,NaN
154673,23.9782,19.9999,0.00236251,846.177,0.000590628,211.544,NaN
156159,23.9696,19.9997,0.00233089,849.665,0.000582723,212.416,NaN
157519,23.9456,19.9999,0.00230297,852.817,0.000575743,213.204,NaN
158858,23.9622,19.9999,0.00227413,855.88,0.000568532,213.97,NaN
160239,23.9042,19.9995,0.00224911,859.002,0.000562277,214.751,NaN
161557,23.8967,20.0003,0.00222471,861.95,0.000556177,215.488,NaN
162766,23.9279,19.9999,0.00220274,864.627,0.000550686,216.157,NaN
164021,23.8598,19.9999,0.0021812,867.379,0.000545301,216.845,NaN
165329,23.8749,19.9995,0.00215819,870.215,0.000539548,217.554,NaN
166644,23.8549,19.9999,0.00213647,873.04,0.000534117,218.26,NaN
168065,23.8344,19.9995,0.00211363,876.059,0.000528408,219.015,NaN
169301,23.8234,19.9997,0.0020945,878.661,0.000523626,219.665,NaN
170524,23.8302,19.9995,0.00207768,881.213,0.000519421,220.303,NaN
171824,23.8639,19.9998,0.00206041,883.902,0.000515102,220.975,NaN
172710,23.8549,19.9998,0.00204987,885.722,0.000512468,221.43,NaN
172984,23.8827,19.9996,NaN,NaN,NaN,NaN,NaN
173318,23.8953,19.9998,NaN,NaN,NaN,NaN,NaN
173614,23.9023,19.9991,NaN,NaN,NaN,NaN,NaN
173888,23.895,20.0003,NaN,NaN,NaN,NaN,NaN
174136,23.9155,19.9993,NaN,NaN,NaN,NaN,NaN
174485,23.8943,19.9999,NaN,NaN,NaN,NaN,NaN
174847,23.9385,20,NaN,NaN,NaN,NaN,NaN
175219,23.9312,19.9997,NaN,NaN,NaN,NaN,NaN
175693,23.9084,19.9996,NaN,NaN,NaN,NaN,NaN
176047,23.9363,19.9999,NaN,NaN,NaN,NaN,NaN
176495,23.9388,19.9999,NaN,NaN,NaN,NaN,NaN
176783,23.9161,19.9996,NaN,NaN,NaN,NaN,NaN
177114,23.9299,19.9996,NaN,NaN,NaN,NaN,NaN
177372,23.9219,19.9997,NaN,NaN,NaN,NaN,NaN
177686,23.9259,19.9997,NaN,NaN,NaN,NaN,NaN
178132,23.9245,20.0004,NaN,NaN,NaN,NaN,NaN
178349,23.9836,19.9999,NaN,NaN,NaN,NaN,NaN
178683,23.9506,19.9998,NaN,NaN,NaN,NaN,NaN
178985,23.9355,19.9999,NaN,NaN,NaN,NaN,NaN
179323,23.94,20,NaN,NaN,NaN,NaN,NaN
179717,23.9511,19.9999,NaN,NaN,NaN,NaN,NaN
180120,23.9709,20.0001,NaN,NaN,NaN,NaN,NaN
180432,23.9681,20.0001,NaN,NaN,NaN,NaN,NaN
180742,23.9496,19.9995,NaN,NaN,NaN,NaN,NaN
181035,23.9858,20.0002,NaN,NaN,NaN,NaN,NaN
181292,23.9886,19.9997,NaN,NaN,NaN,NaN,NaN
181480,23.9914,20.0001,NaN,NaN,NaN,NaN,NaN
181870,23.9727,19.9995,NaN,NaN,NaN,NaN,NaN
182146,23.9387,20,NaN,NaN,NaN,NaN,NaN
182472,23.9659,19.9999,NaN,NaN,NaN,NaN,NaN
182850,23.9766,19.9995,NaN,NaN,NaN,NaN,NaN
183158,24.0059,19.9998,NaN,NaN,NaN,NaN,NaN
183491,23.9865,19.9999,NaN,NaN,NaN,NaN,NaN
183921,24.0344,20.0004,NaN,NaN,NaN,NaN,NaN
184202,24.0351,20,NaN,NaN,NaN,NaN,NaN
184462,23.9956,19.9997,NaN,NaN,NaN,NaN,NaN
184702,23.9979,19.9998,NaN,NaN,NaN,NaN,NaN
184969,23.9806,19.9996,NaN,NaN,NaN,NaN,NaN
185219,24.0233,19.9996,NaN,NaN,NaN,NaN,NaN
185537,24.0751,19.9997,NaN,NaN,NaN,NaN,NaN
185803,24.155,19.9995,NaN,NaN,NaN,NaN,NaN
186131,24.1508,19.9999,NaN,NaN,NaN,NaN,NaN
186527,24.1857,20.0002,NaN,NaN,NaN,NaN,NaN