File: TAInstCalorimetry/DATA/myexp7.csv
Time,Temperature [AmbientT(Therm3T)],Temperature [Temperature],Heat flow [Signal],Heat [Signal],Normalized heat flow [Signal],Normalized heat [Signal],Time markers
0.0,24.474,20.0006,NaN,NaN,NaN,NaN,Reaction start
34.399,24.4724,20.0003,0.000411264,0.00237648,0.000102816,0.000594119,NaN
166.899,24.4776,20.0002,0.0421896,2.79193,0.0105474,0.697983,NaN
378.024,24.5259,20,0.060577,14.3974,0.0151442,3.59936,NaN
665.024,24.6072,20.0002,0.0554679,31.5021,0.013867,7.87554,NaN
1048.09,24.5449,20,0.0337123,48.5182,0.00842807,12.1295,NaN
1483.02,24.523,19.9998,0.0177868,59.3325,0.0044467,14.8331,NaN
1985.15,24.5582,19.9999,0.00920318,65.8074,0.0023008,16.4519,NaN
2704.96,24.5594,19.9996,0.0045763,70.4577,0.00114407,17.6144,NaN
3537.46,24.5733,19.9998,0.00280837,73.4037,0.000702092,18.3509,NaN
4467.77,24.5864,19.9999,0.00206191,75.6198,0.000515477,18.905,NaN
5556.91,24.5966,20.0001,0.00167321,77.6265,0.000418301,19.4066,NaN
6722.41,24.5672,20.0002,0.00148602,79.4517,0.000371505,19.8629,NaN
7915.29,24.6016,19.9998,0.00142419,81.1779,0.000356047,20.2945,NaN
9025.82,24.6198,19.9998,0.00142205,82.7526,0.000355513,20.6882,NaN
10274.9,24.5788,20,0.0016949,84.6819,0.000423726,21.1705,NaN
11567.6,24.6161,20.0003,0.0019705,87.0557,0.000492624,21.7639,NaN
12756.4,24.6164,19.9999,0.00221391,89.5416,0.000553478,22.3854,NaN
13828.7,24.6392,19.9999,0.00244867,92.0402,0.000612167,23.01,NaN
15036.7,24.6185,19.9994,0.00273038,95.1665,0.000682594,23.7916,NaN
16095.6,24.6483,19.9995,0.00299277,98.1956,0.000748193,24.5489,NaN
17384.9,24.6675,19.9994,0.00332966,102.269,0.000832415,25.5673,NaN
18468.8,24.643,19.9998,0.00362654,106.038,0.000906636,26.5095,NaN
19640.5,24.6521,19.9999,0.00395913,110.481,0.000989782,27.6203,NaN
20800.7,24.6913,20.0002,0.00429916,115.271,0.00107479,28.8176,NaN
22076.1,24.643,19.9995,0.00468169,120.997,0.00117042,30.2492,NaN
23224.4,24.6871,20.0001,0.00503358,126.574,0.0012584,31.6435,NaN
24527.3,24.6898,19.9996,0.00543297,133.393,0.00135824,33.3482,NaN
25862.4,24.7295,19.9993,0.00583669,140.918,0.00145917,35.2294,NaN
27108.2,24.7161,19.9998,0.00620491,148.419,0.00155123,37.1048,NaN
28224.7,24.7247,19.9994,0.00652157,155.525,0.00163039,38.8813,NaN
29579.3,24.7616,20.0004,0.00688338,164.607,0.00172084,41.1518,NaN
30840.5,24.682,19.9992,0.00719335,173.488,0.00179834,43.372,NaN
31986.8,24.5827,19.9996,0.00744416,181.88,0.00186104,45.4699,NaN
33159.6,24.5448,19.9999,0.0076747,190.748,0.00191868,47.687,NaN
34461.2,24.5269,19.9998,0.00789893,200.887,0.00197473,50.2219,NaN
35603.3,24.5169,19.9998,0.00806614,210.007,0.00201654,52.5017,NaN
36797.4,24.4729,19.9991,0.00821193,219.728,0.00205298,54.9321,NaN
38138.1,24.4782,19.9998,0.00834125,230.829,0.00208531,57.7072,NaN
39356.4,24.4586,19.9999,0.00842684,241.046,0.00210671,60.2616,NaN
40546.8,24.4288,19.9997,0.00848126,251.113,0.00212031,62.7782,NaN
41636.4,24.4324,19.9997,0.00850824,260.371,0.00212706,65.0927,NaN
42884,24.4112,19.9998,0.00851529,270.993,0.00212882,67.7482,NaN
44033.2,24.3795,19.9997,0.00850176,280.773,0.00212544,70.1932,NaN
45315.8,24.3594,20,0.00846732,291.657,0.00211683,72.9142,NaN
46539.2,24.3674,20.0003,0.00841899,301.988,0.00210475,75.497,NaN
47762.4,24.3395,19.9994,0.00836056,312.251,0.00209014,78.0627,NaN
48902.6,24.3183,19.9999,0.00830443,321.752,0.00207611,80.4379,NaN
50115.2,24.3105,19.9999,0.00826807,331.795,0.00206702,82.9487,NaN
51448,24.2957,19.9998,0.00833114,342.841,0.00208279,85.7103,NaN
52700.1,24.2878,20.0002,0.00841761,353.334,0.0021044,88.3335,NaN
53867.5,24.2983,20.0002,0.00844188,363.178,0.00211047,90.7945,NaN
55016.6,24.2664,20.0001,0.00843219,372.877,0.00210805,93.2192,NaN
56177.7,24.2205,19.9996,0.00838736,382.644,0.00209684,95.6611,NaN
57493.5,24.251,19.9995,0.00830217,393.627,0.00207554,98.4068,NaN
58664.2,24.2816,20.0002,0.00820208,403.29,0.00205052,100.822,NaN
59904.1,24.2465,19.9999,0.00807838,413.385,0.0020196,103.346,NaN
61098.2,24.2535,19.9997,0.00794538,422.953,0.00198634,105.738,NaN
62262.7,24.2459,19.9996,0.00780739,432.125,0.00195185,108.031,NaN
63603,24.2228,19.9999,0.00764341,442.48,0.00191085,110.62,NaN
64866.3,24.2307,19.9997,0.00748841,452.039,0.0018721,113.01,NaN
66008.2,24.2161,19.9996,0.00734625,460.508,0.00183656,115.127,NaN
67088,24.2266,19.9995,0.00721345,468.369,0.00180336,117.092,NaN
68266.6,24.208,19.9994,0.00707107,476.787,0.00176777,119.197,NaN
69461.5,24.1768,20,0.00693035,485.151,0.00173259,121.288,NaN
70707.8,24.1792,19.9999,0.00678781,493.7,0.00169695,123.425,NaN
71786.8,24.1515,19.9996,0.0066672,500.959,0.0016668,125.24,NaN
72995,24.1779,19.9996,0.00653674,508.935,0.00163418,127.234,NaN
74204.8,24.1447,20.0003,0.00641095,516.766,0.00160274,129.192,NaN
75302.1,24.1456,19.9999,0.00630024,523.74,0.00157506,130.935,NaN
76396.2,24.1432,19.9996,0.00619157,530.574,0.00154789,132.643,NaN
77479.4,24.1108,19.9997,0.00608834,537.224,0.00152208,134.306,NaN
78738.6,24.1302,19.9998,0.00597155,544.817,0.00149289,136.204,NaN
80029.3,24.1037,19.9995,0.0058549,552.449,0.00146372,138.112,NaN
81134.4,24.1324,19.9999,0.00575622,558.864,0.00143905,139.716,NaN
82212.4,24.1306,20,0.00566174,565.018,0.00141543,141.255,NaN
83386.4,24.145,19.9998,0.0055611,571.606,0.00139028,142.901,NaN
84521.5,24.1083,19.9998,0.00546547,577.864,0.00136637,144.466,NaN
85680.6,24.1346,19.9993,0.00536936,584.143,0.00134234,146.036,NaN
87054.1,24.1303,19.9996,0.00525854,591.442,0.00131464,147.86,NaN
88165.3,24.1369,19.9995,0.00517118,597.236,0.00129279,149.309,NaN
89232,24.1485,19.9998,0.00508927,602.708,0.00127232,150.677,NaN
90467.8,24.1361,19.9992,0.00499762,608.941,0.0012494,152.235,NaN
91654.9,24.1783,20.0002,0.00491202,614.822,0.00122801,153.706,NaN
92742.2,24.1649,19.9998,0.00483673,620.122,0.00120918,155.03,NaN
93923.4,24.1792,20.0002,0.00475712,625.788,0.00118928,156.447,NaN
95092.7,24.1815,19.9995,0.00468102,631.306,0.00117026,157.826,NaN
96231.1,24.2007,19.9999,0.00460974,636.593,0.00115244,159.148,NaN
97502.5,24.2045,19.9996,0.00453229,642.405,0.00113307,160.601,NaN
98781.9,24.1905,19.9997,0.00445691,648.155,0.00111423,162.039,NaN
100049,24.2089,19.9998,0.00438555,653.757,0.00109639,163.439,NaN
101318,24.1819,20.0002,0.00431796,659.28,0.00107949,164.82,NaN
102796,24.1634,19.9997,0.00424191,665.606,0.00106048,166.401,NaN
104208,24.1936,19.9999,0.00417227,671.545,0.00104307,167.886,NaN
105537,24.2829,20,0.00410952,677.048,0.00102738,169.262,NaN
106897,24.3298,20.0002,0.00405126,682.598,0.00101282,170.649,NaN
108209,24.2534,19.9999,0.00399591,687.875,0.000998978,171.969,NaN
109519,24.2729,19.9999,0.00394257,693.072,0.000985643,173.268,NaN
111069,24.2519,19.9996,0.00387888,699.134,0.000969719,174.784,NaN
112364,24.2545,20.0001,0.00382745,704.124,0.000956862,176.031,NaN
113664,24.2762,19.9997,0.00377699,709.07,0.000944248,177.267,NaN
115050,24.2724,19.9996,0.00372423,714.267,0.000931057,178.567,NaN
116426,24.2388,20,0.00367269,719.357,0.000918172,179.839,NaN
117756,24.1886,20,0.00362191,724.207,0.000905477,181.052,NaN
119151,24.1759,19.9996,0.00356783,729.223,0.000891957,182.306,NaN
120591,24.1732,19.9996,0.00351229,734.318,0.000878072,183.579,NaN
121843,24.2111,20.0001,0.00346405,738.687,0.000866012,184.672,NaN
122990,24.2003,19.9994,0.00341833,742.635,0.000854583,185.659,NaN
124397,24.1523,19.9995,0.00336358,747.403,0.000840894,186.851,NaN
125651,24.1396,20.0003,0.00331467,751.592,0.000828668,187.898,NaN
127081,24.1459,20.0001,0.00325757,756.29,0.000814394,189.073,NaN
128539,24.1486,19.9999,0.00319946,760.998,0.000799865,190.25,NaN
130025,24.1334,19.9999,0.00314007,765.708,0.000785018,191.427,NaN
131390,24.168,19.9994,0.00308599,769.957,0.000771498,192.489,NaN
132808,24.12,19.9995,0.00303303,774.296,0.000758257,193.574,NaN
134041,24.1317,19.9997,0.00298629,778.006,0.000746571,194.501,NaN
135321,24.076,19.9997,0.00294102,781.8,0.000735254,195.45,NaN
136506,24.0842,19.9995,0.00289946,785.261,0.000724865,196.315,NaN
137845,24.0615,19.9999,0.00285588,789.113,0.000713971,197.278,NaN
139365,24.0732,20,0.00280909,793.417,0.000702273,198.354,NaN
140730,24.0718,20.0002,0.00276951,797.226,0.000692376,199.306,NaN
142099,24.0398,20.0001,0.00273103,800.99,0.000682759,200.247,NaN
143391,24.0744,20.0002,0.00269737,804.498,0.000674343,201.124,NaN
144769,24.017,19.9997,0.00266239,808.191,0.000665597,202.048,NaN
146079,24.0193,19.9998,0.00263045,811.657,0.000657613,202.914,NaN
147386,24.0126,19.9995,0.00259828,815.074,0.00064957,203.769,NaN
148653,24.008,19.9997,0.00256931,818.349,0.000642328,204.587,NaN
150082,24.0163,19.9995,0.00253676,821.997,0.000634191,205.499,NaN
151392,24.0371,19.9995,0.00250741,825.299,0.000626854,206.325,NaN
152565,23.9892,19.9998,0.00248111,828.225,0.000620278,207.056,NaN
153867,23.9857,19.9997,0.00245348,831.439,0.000613369,207.86,NaN
155364,23.9707,20.0001,0.00242241,835.087,0.000605603,208.772,NaN
156716,23.962,19.9997,0.00239484,838.344,0.00059871,209.586,NaN
158145,23.9418,19.9999,0.00236624,841.746,0.000591559,210.436,NaN
159589,23.9077,19.9998,0.00233783,845.142,0.000584459,211.285,NaN
160919,23.9155,20,0.0023129,848.235,0.000578224,212.059,NaN
162251,23.9117,19.9992,0.00228686,851.298,0.000571715,212.825,NaN
163766,23.8817,19.9999,0.00225953,854.741,0.000564882,213.685,NaN
165067,23.8646,19.9996,0.00223656,857.666,0.000559141,214.416,NaN
166299,23.8834,20,0.00221562,860.41,0.000553904,215.102,NaN
167784,23.8393,19.9997,0.00219081,863.68,0.000547703,215.92,NaN
169003,23.8452,20,0.00217134,866.34,0.000542834,216.585,NaN
170300,23.8532,19.9998,0.00215115,869.143,0.000537788,217.286,NaN
171599,23.8534,19.9999,0.00213158,871.925,0.000532896,217.981,NaN
172799,23.8945,19.9996,0.00211516,874.473,0.000528791,218.618,NaN
173127,23.8974,20,NaN,NaN,NaN,NaN,NaN
173434,23.9056,19.9992,NaN,NaN,NaN,NaN,NaN
173690,23.8597,20,NaN,NaN,NaN,NaN,NaN
174029,23.9066,19.9998,NaN,NaN,NaN,NaN,NaN
174343,23.8491,19.9994,NaN,NaN,NaN,NaN,NaN
174704,23.9077,20,NaN,NaN,NaN,NaN,NaN
175033,23.9287,19.9997,NaN,NaN,NaN,NaN,NaN
175352,23.9304,19.9997,NaN,NaN,NaN,NaN,NaN
175699,23.9219,20,NaN,NaN,NaN,NaN,NaN
176105,23.9442,20.0001,NaN,NaN,NaN,NaN,NaN
176480,23.9137,20.0002,NaN,NaN,NaN,NaN,NaN
176903,23.92,20.0001,NaN,NaN,NaN,NaN,NaN
177219,23.9174,19.9999,NaN,NaN,NaN,NaN,NaN
177486,23.9241,19.9998,NaN,NaN,NaN,NaN,NaN
177802,23.9649,20.0005,NaN,NaN,NaN,NaN,NaN
178077,23.9558,20.0001,NaN,NaN,NaN,NaN,NaN
178389,23.9513,20,NaN,NaN,NaN,NaN,NaN
178726,23.9527,19.9998,NaN,NaN,NaN,NaN,NaN
179010,23.9517,20,NaN,NaN,NaN,NaN,NaN
179324,23.9622,20.0005,NaN,NaN,NaN,NaN,NaN
179688,23.9739,19.9997,NaN,NaN,NaN,NaN,NaN
180112,23.947,20.0001,NaN,NaN,NaN,NaN,NaN
180529,23.942,19.9997,NaN,NaN,NaN,NaN,NaN
180806,23.9371,19.9997,NaN,NaN,NaN,NaN,NaN
181095,23.9572,20.0001,NaN,NaN,NaN,NaN,NaN
181256,24.0081,19.9997,NaN,NaN,NaN,NaN,NaN
181532,23.9616,19.9996,NaN,NaN,NaN,NaN,NaN
181829,23.9561,19.9991,NaN,NaN,NaN,NaN,NaN
182192,23.9891,19.9997,NaN,NaN,NaN,NaN,NaN
182518,23.981,19.9998,NaN,NaN,NaN,NaN,NaN
182903,23.9803,19.9998,NaN,NaN,NaN,NaN,NaN
183238,24.0097,19.9998,NaN,NaN,NaN,NaN,NaN
183592,23.9837,20.0002,NaN,NaN,NaN,NaN,NaN
183866,23.9539,20.0003,NaN,NaN,NaN,NaN,NaN
184147,23.9861,19.9995,NaN,NaN,NaN,NaN,NaN
184454,23.9949,20,NaN,NaN,NaN,NaN,NaN
184798,23.9693,19.9995,NaN,NaN,NaN,NaN,NaN
185156,24.0414,19.9996,NaN,NaN,NaN,NaN,NaN
185490,24.0722,20.0003,NaN,NaN,NaN,NaN,NaN
185826,24.1285,20,NaN,NaN,NaN,NaN,NaN
186112,24.1122,19.9998,NaN,NaN,NaN,NaN,NaN
186363,24.1936,20.0006,NaN,NaN,NaN,NaN,NaN